Timestamp(ms),Current(uA),D0-D7
840000,11345.800,00000000
840010,11247.773,00000000
840020,10934.402,00000000
840030,10745.405,00000000
840040,10837.369,00000000
840050,10783.012,00000000
840060,11149.872,00000000
840070,11236.981,00000000
840080,11420.985,00000000
840090,11513.312,00000000
840100,11295.237,00000000
840110,10795.784,00000000
840120,10900.319,00000000
840130,11033.172,00000000
840140,11738.146,00000000
840150,11406.228,00000000
840160,10937.977,00000000
840170,10998.935,00000000
840180,10725.364,00000000
840190,11211.343,00000000
840200,10643.353,00000000
840210,10989.021,00000000
840220,10859.631,00000000
840230,10671.944,00000000
840240,10920.315,00000000
840250,10878.808,00000000
840260,10766.609,00000000
840270,10935.851,00000000
840280,11393.378,00000000
840290,10831.554,00000000
840300,10995.782,00000000
840310,10893.326,00000000
840320,10802.878,00000000
840330,10872.556,00000000
840340,10850.167,00000000
840350,11399.196,00000000
840360,11008.965,00000000
840370,10549.450,00000000
840380,10584.148,00000000
840390,10732.208,00000000
840400,10578.897,00000000
840410,11108.851,00000000
840420,11499.292,00000000
840430,11167.243,00000000
840440,11227.612,00000000
840450,11016.801,00000000
840460,10894.509,00000000
840470,10573.687,00000000
840480,11724.114,00000000
840490,10934.076,00000000
840500,10708.313,00000000
840510,10819.014,00000000
840520,10780.103,00000000
840530,11237.907,00000000
840540,10932.257,00000000
840550,11374.185,00000000
840560,11530.336,00000000
840570,11064.875,00000000
840580,11234.170,00000000
840590,11374.301,00000000
840600,11257.846,00000000
840610,11207.760,00000000
840620,11115.917,00000000
840630,11120.405,00000000
840640,10700.122,00000000
840650,10476.316,00000000
840660,10491.137,00000000
840670,10764.278,00000000
840680,10851.682,00000000
840690,11068.604,00000000
840700,10967.400,00000000
840710,10689.061,00000000
840720,11045.691,00000000
840730,10601.657,00000000
840740,10414.176,00000000
840750,10366.992,00000000
840760,11136.323,00000000
840770,11197.828,00000000
840780,10600.521,00000000
840790,10583.423,00000000
840800,10972.878,00000000
840810,11201.970,00000000
840820,11053.162,00000000
840830,10854.119,00000000
840840,10844.998,00000000
840850,11149.815,00000000
840860,11029.789,00000000
840870,11184.906,00000000
840880,11143.520,00000000
840890,11083.797,00000000
840900,10950.397,00000000
840910,11022.914,00000000
840920,11459.112,00000000
840930,10830.576,00000000
840940,10923.832,00000000
840950,10716.504,00000000
840960,10844.048,00000000
840970,11097.219,00000000
840980,10902.273,00000000
840990,11045.501,00000000
841000,10889.775,00000000
841010,10809.845,00000000
841020,10910.138,00000000
841030,10876.812,00000000
841040,10992.134,00000000
841050,10783.995,00000000
841060,11213.984,00000000
841070,11141.561,00000000
841080,10735.740,00000000
841090,10863.349,00000000
841100,10756.977,00000000
841110,10443.260,00000000
841120,10971.511,00000000
841130,10894.733,00000000
841140,10960.476,00000000
841150,11055.176,00000000
841160,10842.599,00000000
841170,10866.285,00000000
841180,10509.284,00000000
841190,10807.383,00000000
841200,10910.200,00000000
841210,10829.035,00000000
841220,10957.375,00000000
841230,10546.205,00000000
841240,10879.218,00000000
841250,10763.437,00000000
841260,11134.601,00000000
841270,11242.045,00000000
841280,10817.749,00000000
841290,10696.224,00000000
841300,10740.974,00000000
841310,10941.218,00000000
841320,10978.064,00000000
841330,10842.893,00000000
841340,11037.418,00000000
841350,10746.467,00000000
841360,10723.976,00000000
841370,10775.771,00000000
841380,10817.748,00000000
841390,10671.786,00000000
841400,10986.794,00000000
841410,11442.007,00000000
841420,11095.088,00000000
841430,10781.047,00000000
841440,10582.929,00000000
841450,10700.354,00000000
841460,10955.472,00000000
841470,11132.317,00000000
841480,11126.180,00000000
841490,10650.296,00000000
841500,10612.268,00000000
841510,11000.391,00000000
841520,10937.743,00000000
841530,10712.685,00000000
841540,10891.426,00000000
841550,11407.902,00000000
841560,11608.568,00000000
841570,11188.924,00000000
841580,11474.353,00000000
841590,11082.793,00000000
841600,10855.261,00000000
841610,11025.714,00000000
841620,10964.835,00000000
841630,10761.502,00000000
841640,10904.540,00000000
841650,10486.681,00000000
841660,10792.117,00000000
841670,10645.027,00000000
841680,11070.323,00000000
841690,11591.800,00000000
841700,11636.193,00000000
841710,11586.669,00000000
841720,11345.271,00000000
841730,11129.050,00000000
841740,10849.609,00000000
841750,10751.437,00000000
841760,10942.725,00000000
841770,10907.736,00000000
841780,10768.586,00000000
841790,10794.115,00000000
841800,10641.143,00000000
841810,11159.244,00000000
841820,11038.550,00000000
841830,11273.922,00000000
841840,10500.813,00000000
841850,10457.647,00000000
841860,10730.811,00000000
841870,10956.432,00000000
841880,10921.392,00000000
841890,11030.967,00000000
841900,10977.304,00000000
841910,11166.913,00000000
841920,10651.543,00000000
841930,10644.600,00000000
841940,10478.079,00000000
841950,10944.296,00000000
841960,11257.490,00000000
841970,10951.454,00000000
841980,10856.846,00000000
841990,10522.405,00000000
842000,10482.437,00000000
842010,10845.509,00000000
842020,10697.547,00000000
842030,10716.253,00000000
842040,10873.895,00000000
842050,11290.129,00000000
842060,10870.876,00000000
842070,10629.851,00000000
842080,10966.845,00000000
842090,10997.576,00000000
842100,11991.231,00000000
842110,11727.651,00000000
842120,10940.955,00000000
842130,10870.363,00000000
842140,11323.008,00000000
842150,11197.414,00000000
842160,11103.846,00000000
842170,11297.839,00000000
842180,11004.017,00000000
842190,11326.646,00000000
842200,10766.560,00000000
842210,10773.921,00000000
842220,10934.310,00000000
842230,11149.708,00000000
842240,11105.522,00000000
842250,11311.557,00000000
842260,11078.086,00000000
842270,11004.978,00000000
842280,10629.255,00000000
842290,10844.073,00000000
842300,11377.536,00000000
842310,11402.296,00000000
842320,11245.362,00000000
842330,10930.714,00000000
842340,11163.526,00000000
842350,11115.659,00000000
842360,10955.349,00000000
842370,11226.488,00000000
842380,11522.782,00000000
842390,11463.074,00000000
842400,11010.714,00000000
842410,10823.456,00000000
842420,11147.099,00000000
842430,10942.251,00000000
842440,11548.341,00000000
842450,11304.636,00000000
842460,10983.019,00000000
842470,10572.844,00000000
842480,10856.978,00000000
842490,10724.542,00000000
842500,10464.053,00000000
842510,11079.321,00000000
842520,11444.355,00000000
842530,11233.557,00000000
842540,11004.096,00000000
842550,10949.728,00000000
842560,11021.825,00000000
842570,11107.769,00000000
842580,10997.193,00000000
842590,11234.966,00000000
842600,11123.514,00000000
842610,10784.710,00000000
842620,10783.045,00000000
842630,11282.438,00000000
842640,11134.991,00000000
842650,11306.102,00000000
842660,10850.489,00000000
842670,11051.250,00000000
842680,11189.361,00000000
842690,11019.739,00000000
842700,10879.360,00000000
842710,10583.204,00000000
842720,11076.980,00000000
842730,11002.255,00000000
842740,11409.543,00000000
842750,11035.068,00000000
842760,11210.183,00000000
842770,10838.986,00000000
842780,10867.375,00000000
842790,11241.554,00000000
842800,11046.241,00000000
842810,11214.283,00000000
842820,10727.771,00000000
842830,11280.111,00000000
842840,11281.596,00000000
842850,10851.385,00000000
842860,11297.613,00000000
842870,11535.761,00000000
842880,11689.397,00000000
842890,10950.793,00000000
842900,10823.218,00000000
842910,10583.176,00000000
842920,10735.107,00000000
842930,10925.802,00000000
842940,11136.427,00000000
842950,11243.438,00000000
842960,10800.590,00000000
842970,11142.701,00000000
842980,10867.529,00000000
842990,10988.206,00000000
843000,11030.663,00000000
843010,10974.976,00000000
843020,11115.449,00000000
843030,10888.368,00000000
843040,10577.122,00000000
843050,10744.935,00000000
843060,10879.189,00000000
843070,10805.625,00000000
843080,11280.134,00000000
843090,11410.038,00000000
843100,10876.535,00000000
843110,10943.700,00000000
843120,10805.205,00000000
843130,10839.914,00000000
843140,10530.054,00000000
843150,10771.499,00000000
843160,10727.725,00000000
843170,11055.214,00000000
843180,10672.033,00000000
843190,10708.808,00000000
843200,11179.732,00000000
843210,11085.591,00000000
843220,10751.876,00000000
843230,11286.081,00000000
843240,11097.761,00000000
843250,10820.818,00000000
843260,11334.384,00000000
843270,10882.145,00000000
843280,10670.290,00000000
843290,10763.433,00000000
843300,11094.799,00000000
843310,11442.551,00000000
843320,10939.690,00000000
843330,10985.326,00000000
843340,10932.209,00000000
843350,11351.312,00000000
843360,11490.006,00000000
843370,10933.810,00000000
843380,11558.864,00000000
843390,11298.044,00000000
843400,11162.632,00000000
843410,11330.102,00000000
843420,11499.593,00000000
843430,11465.054,00000000
843440,11277.104,00000000
843450,10667.642,00000000
843460,10936.236,00000000
843470,10541.080,00000000
843480,11054.052,00000000
843490,11228.836,00000000
843500,11023.099,00000000
843510,11004.264,00000000
843520,10802.441,00000000
843530,11453.568,00000000
843540,11254.535,00000000
843550,10758.475,00000000
843560,11343.326,00000000
843570,11240.314,00000000
843580,11205.652,00000000
843590,11108.188,00000000
843600,11372.553,00000000
843610,11149.454,00000000
843620,11497.358,00000000
843630,11299.733,00000000
843640,11058.851,00000000
843650,10754.470,00000000
843660,11060.965,00000000
843670,10863.537,00000000
843680,11386.307,00000000
843690,11034.624,00000000
843700,11340.098,00000000
843710,10987.912,00000000
843720,11135.851,00000000
843730,11359.608,00000000
843740,10968.693,00000000
843750,11021.360,00000000
843760,11420.160,00000000
843770,11355.155,00000000
843780,11324.551,00000000
843790,11176.627,00000000
843800,11468.451,00000000
843810,11122.621,00000000
843820,11016.484,00000000
843830,11080.824,00000000
843840,11155.182,00000000
843850,11181.048,00000000
843860,11095.887,00000000
843870,11113.392,00000000
843880,10818.423,00000000
843890,10790.160,00000000
843900,11016.023,00000000
843910,11634.919,00000000
843920,11449.705,00000000
843930,11085.348,00000000
843940,11035.669,00000000
843950,10987.869,00000000
843960,10970.117,00000000
843970,11058.850,00000000
843980,10914.323,00000000
843990,11221.394,00000000
844000,11466.596,00000000
844010,11151.231,00000000
844020,11109.105,00000000
844030,10445.127,00000000
844040,10228.467,00000000
844050,10922.270,00000000
844060,11048.123,00000000
844070,11229.856,00000000
844080,10556.583,00000000
844090,10955.913,00000000
844100,10872.778,00000000
844110,10736.502,00000000
844120,10684.607,00000000
844130,11183.459,00000000
844140,11011.360,00000000
844150,10837.578,00000000
844160,11323.784,00000000
844170,11489.678,00000000
844180,11098.581,00000000
844190,11157.043,00000000
844200,11133.651,00000000
844210,11194.737,00000000
844220,10755.958,00000000
844230,10903.223,00000000
844240,10947.793,00000000
844250,10608.525,00000000
844260,11000.677,00000000
844270,10832.503,00000000
844280,10857.727,00000000
844290,10873.571,00000000
844300,10936.041,00000000
844310,11154.771,00000000
844320,11082.384,00000000
844330,11167.952,00000000
844340,11293.215,00000000
844350,11121.015,00000000
844360,11012.450,00000000
844370,10760.464,00000000
844380,10916.359,00000000
844390,11013.811,00000000
844400,10994.301,00000000
844410,10700.494,00000000
844420,11291.775,00000000
844430,11190.894,00000000
844440,11270.712,00000000
844450,11056.134,00000000
844460,11131.561,00000000
844470,11061.194,00000000
844480,10925.730,00000000
844490,11165.260,00000000
844500,10489.785,00000000
844510,11109.913,00000000
844520,10947.128,00000000
844530,11146.475,00000000
844540,11339.597,00000000
844550,11172.653,00000000
844560,10942.580,00000000
844570,11083.322,00000000
844580,11628.909,00000000
844590,11045.401,00000000
844600,11138.171,00000000
844610,10854.086,00000000
844620,10805.388,00000000
844630,10752.766,00000000
844640,10842.143,00000000
844650,10865.521,00000000
844660,10410.326,00000000
844670,10512.864,00000000
844680,11287.350,00000000
844690,11329.179,00000000
844700,10992.515,00000000
844710,10843.528,00000000
844720,10870.256,00000000
844730,10941.189,00000000
844740,10494.017,00000000
844750,10446.647,00000000
844760,10562.625,00000000
844770,10955.447,00000000
844780,10445.136,00000000
844790,11111.234,00000000
844800,11046.899,00000000
844810,10592.186,00000000
844820,11155.550,00000000
844830,10989.903,00000000
844840,10889.463,00000000
844850,10770.355,00000000
844860,10344.162,00000000
844870,10713.717,00000000
844880,10729.756,00000000
844890,10827.602,00000000
844900,10842.498,00000000
844910,11300.203,00000000
844920,10772.579,00000000
844930,10710.436,00000000
844940,11252.906,00000000
844950,18965.404,00000000
844960,22329.457,00000000
844970,24121.805,00000000
844980,24875.746,00000000
844990,24573.389,00000000
845000,24438.424,00000000
845010,23889.707,00000000
845020,19405.975,00000000
845030,15222.312,00000000
845040,14011.810,00000000
845050,12815.642,00000000
845060,12496.034,00000000
845070,12403.788,00000000
845080,12671.568,00000000
845090,12296.774,00000000
845100,12570.769,00000000
845110,12301.846,00000000
845120,13054.833,00000000
845130,12589.150,00000000
845140,12340.894,00000000
845150,12133.021,00000000
845160,12024.637,00000000
845170,12736.789,00000000
845180,13099.055,00000000
845190,13167.377,00000000
845200,12756.986,00000000
845210,13062.445,00000000
845220,12565.466,00000000
845230,12577.378,00000000
845240,12092.845,00000000
845250,12225.680,00000000
845260,12614.183,00000000
845270,12291.010,00000000
845280,11842.093,00000000
845290,12280.954,00000000
845300,12284.491,00000000
845310,12315.847,00000000
845320,12634.832,00000000
845330,12498.675,00000000
845340,12352.920,00000000
845350,12346.497,00000000
845360,12320.424,00000000
845370,12646.911,00000000
845380,12654.083,00000000
845390,13188.651,00000000
845400,13163.449,00000000
845410,12396.241,00000000
845420,12050.165,00000000
845430,12220.968,00000000
845440,12713.056,00000000
845450,13140.299,00000000
845460,12709.350,00000000
845470,13219.271,00000000
845480,12902.676,00000000
845490,12856.780,00000000
845500,12840.963,00000000
845510,12978.081,00000000
845520,12584.824,00000000
845530,12574.742,00000000
845540,12476.512,00000000
845550,12653.744,00000000
845560,12512.641,00000000
845570,12204.851,00000000
845580,11887.484,00000000
845590,12600.021,00000000
845600,12664.420,00000000
845610,13211.620,00000000
845620,12805.305,00000000
845630,12583.470,00000000
845640,12311.286,00000000
845650,12619.836,00000000
845660,13014.923,00000000
845670,12648.235,00000000
845680,12530.417,00000000
845690,12391.974,00000000
845700,12390.034,00000000
845710,12769.917,00000000
845720,12319.053,00000000
845730,12690.549,00000000
845740,12750.307,00000000
845750,12598.921,00000000
845760,12425.658,00000000
845770,12584.522,00000000
845780,12292.202,00000000
845790,12636.733,00000000
845800,12980.925,00000000
845810,12989.796,00000000
845820,12723.859,00000000
845830,12653.766,00000000
845840,12437.185,00000000
845850,12477.619,00000000
845860,12734.080,00000000
845870,12501.663,00000000
845880,12281.670,00000000
845890,12370.179,00000000
845900,12842.311,00000000
845910,12387.573,00000000
845920,12506.592,00000000
845930,12233.740,00000000
845940,12737.463,00000000
845950,24344.176,00000000
845960,48745.004,00000000
845970,57378.578,00000000
845980,60481.047,00000000
845990,61929.801,00000000
846000,61881.113,00000000
846010,62595.055,00000000
846020,62684.074,00000000
846030,62846.848,00000000
846040,63029.180,00000000
846050,62597.832,00000000
846060,61921.270,00000000
846070,62103.410,00000000
846080,63165.992,00000000
846090,62931.297,00000000
846100,62874.758,00000000
846110,61777.230,00000000
846120,62110.289,00000000
846130,62594.406,00000000
846140,61990.695,00000000
846150,62969.988,00000000
846160,62836.609,00000000
846170,63013.973,00000000
846180,62593.457,00000000
846190,62357.852,00000000
846200,62404.301,00000000
846210,62030.523,00000000
846220,62839.961,00000000
846230,62982.875,00000000
846240,62736.637,00000000
846250,62353.504,00000000
846260,62352.621,00000000
846270,62694.125,00000000
846280,63334.785,00000000
846290,62958.383,00000000
846300,63179.746,00000000
846310,62758.738,00000000
846320,62915.551,00000000
846330,61454.430,00000000
846340,62218.570,00000000
846350,62438.523,00000000
846360,62904.000,00000000
846370,62514.340,00000000
846380,63014.652,00000000
846390,62956.074,00000000
846400,62645.344,00000000
846410,62151.941,00000000
846420,61718.746,00000000
846430,62012.727,00000000
846440,63246.938,00000000
846450,64502.078,00000000
846460,63930.867,00000000
846470,62538.324,00000000
846480,62103.977,00000000
846490,62473.727,00000000
846500,63001.113,00000000
846510,63307.902,00000000
846520,62766.320,00000000
846530,62520.113,00000000
846540,62580.273,00000000
846550,62369.750,00000000
846560,62488.297,00000000
846570,62920.934,00000000
846580,63243.605,00000000
846590,62528.305,00000000
846600,62426.262,00000000
846610,62432.328,00000000
846620,62849.547,00000000
846630,62786.281,00000000
846640,63222.316,00000000
846650,63170.734,00000000
846660,63427.145,00000000
846670,62833.207,00000000
846680,62402.375,00000000
846690,63177.418,00000000
846700,62088.797,00000000
846710,62795.813,00000000
846720,63063.094,00000000
846730,63064.379,00000000
846740,62775.324,00000000
846750,62449.008,00000000
846760,62702.293,00000000
846770,62208.863,00000000
846780,63117.617,00000000
846790,63038.141,00000000
846800,63511.648,00000000
846810,63079.223,00000000
846820,62866.043,00000000
846830,62686.184,00000000
846840,62028.973,00000000
846850,63046.316,00000000
846860,62916.027,00000000
846870,62620.820,00000000
846880,62339.059,00000000
846890,62237.102,00000000
846900,62508.578,00000000
846910,61952.504,00000000
846920,62813.250,00000000
846930,62745.316,00000000
846940,63053.012,00000000
846950,62035.289,00000000
846960,62840.285,00000000
846970,62490.969,00000000
846980,62781.156,00000000
846990,63730.141,00000000
847000,63635.879,00000000
847010,63020.594,00000000
847020,63158.559,00000000
847030,62809.520,00000000
847040,62212.789,00000000
847050,62347.609,00000000
847060,61800.301,00000000
847070,62308.387,00000000
847080,62455.359,00000000
847090,62368.738,00000000
847100,62976.215,00000000
847110,62807.938,00000000
847120,62584.375,00000000
847130,62492.633,00000000
847140,63144.801,00000000
847150,62770.730,00000000
847160,62661.773,00000000
847170,62389.109,00000000
847180,62584.043,00000000
847190,62411.465,00000000
847200,62596.617,00000000
847210,62813.371,00000000
847220,62485.586,00000000
847230,63021.848,00000000
847240,62436.813,00000000
847250,62482.832,00000000
847260,62599.863,00000000
847270,62980.688,00000000
847280,63091.598,00000000
847290,62414.836,00000000
847300,61970.008,00000000
847310,62146.973,00000000
847320,62619.379,00000000
847330,62287.480,00000000
847340,63091.512,00000000
847350,62884.816,00000000
847360,62945.645,00000000
847370,62394.578,00000000
847380,62263.680,00000000
847390,62557.387,00000000
847400,62415.000,00000000
847410,63545.887,00000000
847420,63284.391,00000000
847430,62968.449,00000000
847440,62680.102,00000000
847450,62656.227,00000000
847460,63352.797,00000000
847470,63504.172,00000000
847480,63019.977,00000000
847490,63516.938,00000000
847500,63340.070,00000000
847510,63379.359,00000000
847520,62876.523,00000000
847530,62101.094,00000000
847540,63073.645,00000000
847550,63182.355,00000000
847560,63323.480,00000000
847570,63884.266,00000000
847580,62065.832,00000000
847590,62514.578,00000000
847600,61772.051,00000000
847610,62940.621,00000000
847620,63252.383,00000000
847630,63084.066,00000000
847640,62690.852,00000000
847650,62827.031,00000000
847660,62020.730,00000000
847670,62726.609,00000000
847680,61998.258,00000000
847690,62258.691,00000000
847700,62768.844,00000000
847710,63320.359,00000000
847720,62552.020,00000000
847730,63352.770,00000000
847740,62041.402,00000000
847750,62768.266,00000000
847760,62778.336,00000000
847770,62804.547,00000000
847780,62704.082,00000000
847790,62289.684,00000000
847800,62860.879,00000000
847810,62963.207,00000000
847820,63296.992,00000000
847830,62524.625,00000000
847840,63199.359,00000000
847850,63227.762,00000000
847860,62502.082,00000000
847870,62568.492,00000000
847880,61888.375,00000000
847890,62830.234,00000000
847900,63299.781,00000000
847910,62871.699,00000000
847920,63295.484,00000000
847930,63303.801,00000000
847940,62466.703,00000000
847950,62519.816,00000000
847960,62309.770,00000000
847970,63236.754,00000000
847980,63145.457,00000000
847990,63326.277,00000000
848000,62990.824,00000000
848010,62341.012,00000000
848020,62819.359,00000000
848030,62783.813,00000000
848040,63100.367,00000000
848050,62318.969,00000000
848060,62742.500,00000000
848070,63648.637,00000000
848080,62498.672,00000000
848090,44121.684,00000000
848100,23346.586,00000000
848110,15575.802,00000000
848120,12694.549,00000000
848130,11542.476,00000000
848140,10731.424,00000000
848150,10979.620,00000000
848160,10826.632,00000000
848170,10854.173,00000000
848180,11016.250,00000000
848190,11077.123,00000000
848200,11336.025,00000000
848210,10875.049,00000000
848220,11043.658,00000000
848230,11055.632,00000000
848240,10617.109,00000000
848250,10768.130,00000000
848260,10918.196,00000000
848270,10917.936,00000000
848280,10762.366,00000000
848290,10524.788,00000000
848300,10696.741,00000000
848310,10799.619,00000000
848320,10722.497,00000000
848330,11021.812,00000000
848340,10926.522,00000000
848350,11043.771,00000000
848360,10776.051,00000000
848370,10886.292,00000000
848380,10695.500,00000000
848390,11216.555,00000000
848400,11342.916,00000000
848410,11260.967,00000000
848420,11312.652,00000000
848430,10753.223,00000000
848440,10982.076,00000000
848450,10955.003,00000000
848460,11303.257,00000000
848470,11451.062,00000000
848480,11199.094,00000000
848490,11064.224,00000000
848500,11011.035,00000000
848510,10691.054,00000000
848520,11022.882,00000000
848530,11744.940,00000000
848540,11375.390,00000000
848550,11198.550,00000000
848560,10678.700,00000000
848570,10469.388,00000000
848580,10753.337,00000000
848590,11483.521,00000000
848600,10945.045,00000000
848610,10731.453,00000000
848620,11130.121,00000000
848630,11050.461,00000000
848640,10946.584,00000000
848650,10566.552,00000000
848660,10627.947,00000000
848670,10583.589,00000000
848680,10720.377,00000000
848690,10796.422,00000000
848700,10572.600,00000000
848710,10629.390,00000000
848720,10990.479,00000000
848730,11346.556,00000000
848740,11261.530,00000000
848750,11310.655,00000000
848760,10839.198,00000000
848770,11203.811,00000000
848780,11362.160,00000000
848790,11330.301,00000000
848800,10951.400,00000000
848810,11112.137,00000000
848820,11613.735,00000000
848830,10837.526,00000000
848840,10685.125,00000000
848850,10971.485,00000000
848860,10615.342,00000000
848870,11188.221,00000000
848880,11680.512,00000000
848890,11160.903,00000000
848900,11430.540,00000000
848910,11074.268,00000000
848920,11354.846,00000000
848930,11165.547,00000000
848940,10901.051,00000000
848950,10866.494,00000000
848960,11520.612,00000000
848970,10865.153,00000000
848980,11125.030,00000000
848990,11527.790,00000000
849000,11156.921,00000000
849010,10765.386,00000000
849020,11020.182,00000000
849030,11357.548,00000000
849040,10920.664,00000000
849050,10895.533,00000000
849060,10875.526,00000000
849070,10646.550,00000000
849080,11323.459,00000000
849090,11170.425,00000000
849100,10763.504,00000000
849110,10713.412,00000000
849120,10585.938,00000000
849130,11175.149,00000000
849140,10842.392,00000000
849150,10677.172,00000000
849160,10605.650,00000000
849170,10668.215,00000000
849180,11027.941,00000000
849190,11074.576,00000000
849200,11317.505,00000000
849210,11154.689,00000000
849220,11024.939,00000000
849230,10994.052,00000000
849240,11135.668,00000000
849250,10872.296,00000000
849260,10871.190,00000000
849270,10679.176,00000000
849280,10869.962,00000000
849290,10943.298,00000000
849300,11112.540,00000000
849310,11353.178,00000000
849320,11123.357,00000000
849330,11283.364,00000000
849340,10649.422,00000000
849350,10826.040,00000000
849360,10811.844,00000000
849370,11464.563,00000000
849380,11081.938,00000000
849390,10627.614,00000000
849400,10496.525,00000000
849410,10512.335,00000000
849420,10695.694,00000000
849430,11272.041,00000000
849440,11185.008,00000000
849450,11400.820,00000000
849460,10618.329,00000000
849470,10744.873,00000000
849480,10709.579,00000000
849490,10615.186,00000000
849500,11006.170,00000000
849510,10989.725,00000000
849520,11056.720,00000000
849530,10731.698,00000000
849540,10678.842,00000000
849550,10674.668,00000000
849560,10304.608,00000000
849570,10812.578,00000000
849580,11150.274,00000000
849590,11297.271,00000000
849600,10864.118,00000000
849610,10805.059,00000000
849620,11068.853,00000000
849630,10874.974,00000000
849640,10589.700,00000000
849650,11092.827,00000000
849660,11225.730,00000000
849670,11551.780,00000000
849680,11426.809,00000000
849690,11041.755,00000000
849700,10734.617,00000000
849710,10693.991,00000000
849720,11058.904,00000000
849730,10985.262,00000000
849740,10867.995,00000000
849750,11072.816,00000000
849760,11143.350,00000000
849770,10702.993,00000000
849780,11099.585,00000000
849790,11115.607,00000000
849800,11177.691,00000000
849810,11237.276,00000000
849820,11360.800,00000000
849830,11267.213,00000000
849840,10620.700,00000000
849850,11342.569,00000000
849860,11397.390,00000000
849870,10844.178,00000000
849880,11148.669,00000000
849890,10638.396,00000000
849900,10798.559,00000000
849910,10894.675,00000000
849920,11149.049,00000000
849930,11118.057,00000000
849940,11183.061,00000000
849950,10873.926,00000000
849960,10964.035,00000000
849970,10697.011,00000000
849980,10675.169,00000000
849990,10944.110,00000000
850000,10901.296,00000000
850010,11076.611,00000000
850020,11196.778,00000000
850030,10829.509,00000000
850040,10413.598,00000000
850050,10614.551,00000000
850060,10861.400,00000000
850070,11183.988,00000000
850080,10973.517,00000000
850090,11099.308,00000000
850100,10921.882,00000000
850110,10989.510,00000000
850120,10848.225,00000000
850130,11204.799,00000000
850140,11110.462,00000000
850150,11692.187,00000000
850160,11030.347,00000000
850170,10700.592,00000000
850180,10741.011,00000000
850190,11017.789,00000000
850200,10711.936,00000000
850210,10845.643,00000000
850220,10882.243,00000000
850230,10704.018,00000000
850240,10866.584,00000000
850250,10770.740,00000000
850260,10861.477,00000000
850270,11248.611,00000000
850280,10961.836,00000000
850290,10764.280,00000000
850300,11452.304,00000000
850310,10682.058,00000000
850320,10698.915,00000000
850330,10467.785,00000000
850340,10770.474,00000000
850350,11091.079,00000000
850360,10695.671,00000000
850370,10499.749,00000000
850380,10655.620,00000000
850390,10544.397,00000000
850400,10918.286,00000000
850410,10942.668,00000000
850420,11399.967,00000000
850430,11295.911,00000000
850440,11150.644,00000000
850450,11333.369,00000000
850460,11105.172,00000000
850470,11275.772,00000000
850480,11006.742,00000000
850490,11022.003,00000000
850500,11267.776,00000000
850510,11227.497,00000000
850520,10910.652,00000000
850530,11023.223,00000000
850540,11196.831,00000000
850550,11060.345,00000000
850560,10755.558,00000000
850570,10969.232,00000000
850580,11253.584,00000000
850590,11286.964,00000000
850600,11104.929,00000000
850610,11104.528,00000000
850620,11045.966,00000000
850630,11152.573,00000000
850640,10879.340,00000000
850650,10932.834,00000000
850660,10944.328,00000000
850670,10965.755,00000000
850680,10914.309,00000000
850690,11221.475,00000000
850700,11312.543,00000000
850710,11396.363,00000000
850720,10728.235,00000000
850730,11222.996,00000000
850740,11419.274,00000000
850750,11352.737,00000000
850760,11167.523,00000000
850770,11100.376,00000000
850780,11377.847,00000000
850790,11464.348,00000000
850800,10686.218,00000000
850810,10725.600,00000000
850820,10879.800,00000000
850830,11177.308,00000000
850840,11432.167,00000000
850850,10883.020,00000000
850860,10827.391,00000000
850870,10750.240,00000000
850880,10935.913,00000000
850890,11087.478,00000000
850900,10833.313,00000000
850910,10677.979,00000000
850920,10612.936,00000000
850930,10773.541,00000000
850940,10530.224,00000000
850950,10773.237,00000000
850960,11077.478,00000000
850970,11216.793,00000000
850980,11449.751,00000000
850990,11498.948,00000000
851000,11498.224,00000000
851010,11058.650,00000000
851020,11207.492,00000000
851030,11260.423,00000000
851040,10980.146,00000000
851050,11280.002,00000000
851060,11151.898,00000000
851070,10723.128,00000000
851080,11125.019,00000000
851090,11357.938,00000000
851100,11162.517,00000000
851110,11018.783,00000000
851120,10832.694,00000000
851130,11216.947,00000000
851140,10977.303,00000000
851150,10709.402,00000000
851160,10962.848,00000000
851170,10720.585,00000000
851180,10861.410,00000000
851190,11045.215,00000000
851200,11260.550,00000000
851210,10834.565,00000000
851220,10498.040,00000000
851230,11152.046,00000000
851240,11051.055,00000000
851250,11165.208,00000000
851260,11074.963,00000000
851270,11520.567,00000000
851280,11107.794,00000000
851290,10619.586,00000000
851300,11093.922,00000000
851310,10872.031,00000000
851320,11448.212,00000000
851330,11482.078,00000000
851340,11326.003,00000000
851350,11237.446,00000000
851360,11192.532,00000000
851370,11242.195,00000000
851380,10977.231,00000000
851390,11027.232,00000000
851400,10905.421,00000000
851410,11308.335,00000000
851420,11072.519,00000000
851430,10716.210,00000000
851440,10978.782,00000000
851450,11340.231,00000000
851460,11501.616,00000000
851470,11770.770,00000000
851480,11267.950,00000000
851490,11116.973,00000000
851500,11371.245,00000000
851510,10933.298,00000000
851520,10622.521,00000000
851530,10945.350,00000000
851540,11324.858,00000000
851550,11242.962,00000000
851560,10705.163,00000000
851570,10606.736,00000000
851580,10865.946,00000000
851590,10621.343,00000000
851600,10884.663,00000000
851610,11075.700,00000000
851620,11208.741,00000000
851630,11218.208,00000000
851640,11010.195,00000000
851650,10883.414,00000000
851660,10829.678,00000000
851670,11801.006,00000000
851680,11713.026,00000000
851690,11269.061,00000000
851700,10773.189,00000000
851710,11245.930,00000000
851720,11604.967,00000000
851730,10880.532,00000000
851740,11017.537,00000000
851750,11278.898,00000000
851760,11593.049,00000000
851770,11486.533,00000000
851780,11058.951,00000000
851790,10817.771,00000000
851800,10769.476,00000000
851810,10773.342,00000000
851820,11030.185,00000000
851830,11375.332,00000000
851840,11380.391,00000000
851850,10942.725,00000000
851860,10813.269,00000000
851870,11047.536,00000000
851880,11376.336,00000000
851890,11539.117,00000000
851900,11451.628,00000000
851910,11223.159,00000000
851920,11008.146,00000000
851930,11338.474,00000000
851940,11088.354,00000000
851950,11151.840,00000000
851960,11043.919,00000000
851970,11264.336,00000000
851980,11162.345,00000000
851990,11123.054,00000000
852000,10916.247,00000000
852010,11235.862,00000000
852020,10794.696,00000000
852030,10807.988,00000000
852040,11165.360,00000000
852050,10797.727,00000000
852060,11420.849,00000000
852070,11014.226,00000000
852080,10710.140,00000000
852090,11008.626,00000000
852100,11545.524,00000000
852110,11416.669,00000000
852120,11134.238,00000000
852130,10941.428,00000000
852140,10973.839,00000000
852150,10762.418,00000000
852160,11350.747,00000000
852170,11262.090,00000000
852180,11452.748,00000000
852190,11217.021,00000000
852200,11262.226,00000000
852210,10959.651,00000000
852220,11512.509,00000000
852230,10900.152,00000000
852240,10971.178,00000000
852250,10694.730,00000000
852260,11019.794,00000000
852270,10942.489,00000000
852280,10913.120,00000000
852290,10503.863,00000000
852300,10799.651,00000000
852310,10891.384,00000000
852320,10930.915,00000000
852330,11027.662,00000000
852340,10588.294,00000000
852350,10959.062,00000000
852360,11123.896,00000000
852370,11150.981,00000000
852380,10741.780,00000000
852390,11094.183,00000000
852400,10619.825,00000000
852410,10607.398,00000000
852420,10666.197,00000000
852430,10876.006,00000000
852440,10896.079,00000000
852450,10997.980,00000000
852460,11289.525,00000000
852470,10958.014,00000000
852480,10989.457,00000000
852490,11014.041,00000000
852500,11111.873,00000000
852510,11092.270,00000000
852520,11178.778,00000000
852530,11087.958,00000000
852540,11332.716,00000000
852550,11184.651,00000000
852560,10566.643,00000000
852570,10623.655,00000000
852580,10829.872,00000000
852590,11509.148,00000000
852600,11367.584,00000000
852610,10874.760,00000000
852620,10873.252,00000000
852630,10888.112,00000000
852640,11105.479,00000000
852650,11559.233,00000000
852660,11074.002,00000000
852670,10811.293,00000000
852680,10730.238,00000000
852690,11482.812,00000000
852700,11275.239,00000000
852710,10767.301,00000000
852720,10773.573,00000000
852730,11065.747,00000000
852740,11407.110,00000000
852750,11074.061,00000000
852760,11040.919,00000000
852770,10920.081,00000000
852780,11376.954,00000000
852790,11404.038,00000000
852800,10558.789,00000000
852810,10930.576,00000000
852820,11385.090,00000000
852830,11382.393,00000000
852840,11053.149,00000000
852850,10797.302,00000000
852860,11017.432,00000000
852870,11084.649,00000000
852880,11600.489,00000000
852890,11104.532,00000000
852900,11132.265,00000000
852910,10917.727,00000000
852920,10777.762,00000000
852930,10913.469,00000000
852940,11415.879,00000000
852950,11160.473,00000000
852960,10922.396,00000000
852970,10640.309,00000000
852980,11123.954,00000000
852990,10835.124,00000000
853000,11189.037,00000000
853010,10939.132,00000000
853020,10727.393,00000000
853030,10727.613,00000000
853040,10850.643,00000000
853050,10802.712,00000000
853060,10803.653,00000000
853070,11111.885,00000000
853080,11173.571,00000000
853090,18889.537,00000000
853100,22709.174,00000000
853110,23374.916,00000000
853120,23698.199,00000000
853130,24406.932,00000000
853140,24818.381,00000000
853150,24762.414,00000000
853160,20717.221,00000000
853170,15831.888,00000000
853180,13664.283,00000000
853190,12966.003,00000000
853200,12683.710,00000000
853210,12524.460,00000000
853220,12468.203,00000000
853230,12543.687,00000000
853240,12557.869,00000000
853250,12103.571,00000000
853260,12843.324,00000000
853270,12632.797,00000000
853280,12623.762,00000000
853290,12517.396,00000000
853300,12720.605,00000000
853310,11829.836,00000000
853320,12356.603,00000000
853330,12477.295,00000000
853340,12553.358,00000000
853350,12365.642,00000000
853360,12365.969,00000000
853370,12743.895,00000000
853380,12870.132,00000000
853390,12677.724,00000000
853400,12403.571,00000000
853410,12283.043,00000000
853420,12822.842,00000000
853430,12763.717,00000000
853440,12541.646,00000000
853450,12555.165,00000000
853460,12633.886,00000000
853470,12731.596,00000000
853480,12341.738,00000000
853490,12582.471,00000000
853500,12731.290,00000000
853510,12891.654,00000000
853520,12645.375,00000000
853530,12301.892,00000000
853540,12379.357,00000000
853550,12881.418,00000000
853560,12947.486,00000000
853570,12837.648,00000000
853580,12621.992,00000000
853590,12309.991,00000000
853600,12380.952,00000000
853610,12959.953,00000000
853620,12579.125,00000000
853630,12412.817,00000000
853640,12297.007,00000000
853650,12215.329,00000000
853660,13116.264,00000000
853670,12369.354,00000000
853680,12240.666,00000000
853690,12143.448,00000000
853700,13192.914,00000000
853710,12995.546,00000000
853720,12395.025,00000000
853730,12096.794,00000000
853740,12296.644,00000000
853750,12832.562,00000000
853760,12955.688,00000000
853770,12898.563,00000000
853780,13071.273,00000000
853790,13013.330,00000000
853800,12812.382,00000000
853810,12936.127,00000000
853820,12008.334,00000000
853830,12557.748,00000000
853840,12641.301,00000000
853850,12662.086,00000000
853860,12764.808,00000000
853870,12533.402,00000000
853880,11885.780,00000000
853890,12585.306,00000000
853900,12915.172,00000000
853910,12959.291,00000000
853920,12655.745,00000000
853930,12405.826,00000000
853940,12648.381,00000000
853950,12574.319,00000000
853960,12739.763,00000000
853970,12613.489,00000000
853980,12398.008,00000000
853990,12814.300,00000000
854000,12858.447,00000000
854010,12797.143,00000000
854020,12749.579,00000000
854030,12418.291,00000000
854040,12271.476,00000000
854050,12772.223,00000000
854060,12565.846,00000000
854070,12174.844,00000000
854080,11745.271,00000000
854090,19690.732,00000000
854100,46348.766,00000000
854110,56208.938,00000000
854120,60617.613,00000000
854130,61547.855,00000000
854140,61825.219,00000000
854150,62083.348,00000000
854160,62198.402,00000000
854170,62267.820,00000000
854180,62040.863,00000000
854190,63066.469,00000000
854200,62471.703,00000000
854210,62295.016,00000000
854220,62495.113,00000000
854230,62312.551,00000000
854240,62511.262,00000000
854250,62539.270,00000000
854260,63033.480,00000000
854270,62931.422,00000000
854280,63258.422,00000000
854290,63126.695,00000000
854300,63310.535,00000000
854310,62734.930,00000000
854320,62967.852,00000000
854330,62520.426,00000000
854340,62434.816,00000000
854350,62459.395,00000000
854360,62665.047,00000000
854370,62142.398,00000000
854380,62593.371,00000000
854390,62644.141,00000000
854400,62692.496,00000000
854410,62938.480,00000000
854420,63029.492,00000000
854430,62442.922,00000000
854440,62377.824,00000000
854450,63012.871,00000000
854460,62360.254,00000000
854470,63634.242,00000000
854480,63222.527,00000000
854490,62392.941,00000000
854500,62280.012,00000000
854510,62716.801,00000000
854520,62863.000,00000000
854530,62914.738,00000000
854540,62765.691,00000000
854550,63033.301,00000000
854560,63356.652,00000000
854570,62294.227,00000000
854580,63023.723,00000000
854590,63804.852,00000000
854600,63721.773,00000000
854610,63608.480,00000000
854620,62767.488,00000000
854630,62491.711,00000000
854640,62402.719,00000000
854650,62396.934,00000000
854660,61965.867,00000000
854670,62601.832,00000000
854680,62496.965,00000000
854690,62701.219,00000000
854700,62358.496,00000000
854710,62353.414,00000000
854720,61380.602,00000000
854730,61786.023,00000000
854740,62052.781,00000000
854750,62774.363,00000000
854760,62920.508,00000000
854770,62842.680,00000000
854780,62857.172,00000000
854790,62452.828,00000000
854800,62886.848,00000000
854810,62353.766,00000000
854820,62336.754,00000000
854830,62328.438,00000000
854840,62810.996,00000000
854850,62655.262,00000000
854860,61991.910,00000000
854870,62193.723,00000000
854880,62255.801,00000000
854890,62774.277,00000000
854900,62504.438,00000000
854910,62518.582,00000000
854920,61846.949,00000000
854930,62417.969,00000000
854940,61755.551,00000000
854950,61880.945,00000000
854960,62031.633,00000000
854970,62336.305,00000000
854980,62964.605,00000000
854990,62272.570,00000000
855000,62336.297,00000000
855010,62210.148,00000000
855020,62605.840,00000000
855030,62791.156,00000000
855040,63089.398,00000000
855050,62540.688,00000000
855060,62556.699,00000000
855070,62391.031,00000000
855080,62828.203,00000000
855090,62003.742,00000000
855100,62167.762,00000000
855110,62496.719,00000000
855120,63650.355,00000000
855130,63362.535,00000000
855140,62031.664,00000000
855150,62457.215,00000000
855160,63011.344,00000000
855170,62249.184,00000000
855180,63158.359,00000000
855190,62944.379,00000000
855200,62919.621,00000000
855210,62880.105,00000000
855220,62767.449,00000000
855230,62426.715,00000000
855240,62471.508,00000000
855250,62886.867,00000000
855260,63144.770,00000000
855270,62193.379,00000000
855280,62798.410,00000000
855290,62905.109,00000000
855300,63043.590,00000000
855310,62794.496,00000000
855320,62600.328,00000000
855330,61765.617,00000000
855340,62314.867,00000000
855350,62004.547,00000000
855360,62768.867,00000000
855370,62431.762,00000000
855380,62473.023,00000000
855390,62720.207,00000000
855400,62720.793,00000000
855410,62774.375,00000000
855420,62216.691,00000000
855430,62756.320,00000000
855440,62698.121,00000000
855450,62379.004,00000000
855460,62729.367,00000000
855470,62620.801,00000000
855480,62703.535,00000000
855490,63216.770,00000000
855500,62274.840,00000000
855510,62938.398,00000000
855520,62695.020,00000000
855530,63405.738,00000000
855540,62162.449,00000000
855550,62182.316,00000000
855560,62415.492,00000000
855570,62158.953,00000000
855580,62337.063,00000000
855590,62676.465,00000000
855600,63076.836,00000000
855610,62569.438,00000000
855620,62684.973,00000000
855630,61644.887,00000000
855640,62230.961,00000000
855650,62162.031,00000000
855660,62250.020,00000000
855670,63025.305,00000000
855680,63476.656,00000000
855690,62588.309,00000000
855700,62743.383,00000000
855710,61991.855,00000000
855720,62685.148,00000000
855730,62821.191,00000000
855740,62306.465,00000000
855750,62347.918,00000000
855760,62391.395,00000000
855770,62097.191,00000000
855780,61938.855,00000000
855790,62252.508,00000000
855800,62778.074,00000000
855810,62488.387,00000000
855820,61834.703,00000000
855830,62202.457,00000000
855840,62272.684,00000000
855850,62020.750,00000000
855860,62669.383,00000000
855870,62895.902,00000000
855880,62533.836,00000000
855890,62314.891,00000000
855900,62863.727,00000000
855910,62780.355,00000000
855920,63032.316,00000000
855930,62452.453,00000000
855940,63872.488,00000000
855950,63239.887,00000000
855960,62367.758,00000000
855970,62081.914,00000000
855980,62297.598,00000000
855990,62846.906,00000000
856000,63307.316,00000000
856010,62808.965,00000000
856020,62434.328,00000000
856030,62826.488,00000000
856040,62430.719,00000000
856050,62203.074,00000000
856060,63036.145,00000000
856070,62686.715,00000000
856080,62872.320,00000000
856090,63365.207,00000000
856100,63027.344,00000000
856110,63240.406,00000000
856120,63215.605,00000000
856130,62232.945,00000000
856140,62973.418,00000000
856150,62555.273,00000000
856160,63285.863,00000000
856170,62593.020,00000000
856180,62966.031,00000000
856190,62955.559,00000000
856200,62389.461,00000000
856210,62863.281,00000000
856220,62457.227,00000000
856230,48209.262,00000000
856240,24207.275,00000000
856250,16048.989,00000000
856260,13025.529,00000000
856270,12222.541,00000000
856280,11375.662,00000000
856290,11276.573,00000000
856300,11153.060,00000000
856310,11147.396,00000000
856320,10691.314,00000000
856330,10805.832,00000000
856340,10568.691,00000000
856350,11100.688,00000000
856360,11198.563,00000000
856370,11022.921,00000000
856380,11112.184,00000000
856390,10905.108,00000000
856400,10532.879,00000000
856410,10728.289,00000000
856420,10990.084,00000000
856430,10799.725,00000000
856440,10850.902,00000000
856450,10731.430,00000000
856460,11018.127,00000000
856470,10641.807,00000000
856480,10845.101,00000000
856490,11072.298,00000000
856500,10924.996,00000000
856510,11247.557,00000000
856520,11141.334,00000000
856530,10514.155,00000000
856540,10494.261,00000000
856550,10464.808,00000000
856560,11052.960,00000000
856570,11213.528,00000000
856580,11885.572,00000000
856590,11170.886,00000000
856600,10893.321,00000000
856610,10787.860,00000000
856620,10801.201,00000000
856630,10926.292,00000000
856640,10856.058,00000000
856650,10287.990,00000000
856660,10775.945,00000000
856670,10896.896,00000000
856680,10375.561,00000000
856690,10470.626,00000000
856700,11030.124,00000000
856710,11224.465,00000000
856720,11506.749,00000000
856730,10966.883,00000000
856740,11173.878,00000000
856750,10923.580,00000000
856760,11104.614,00000000
856770,11181.072,00000000
856780,11366.814,00000000
856790,11773.044,00000000
856800,11414.147,00000000
856810,11030.381,00000000
856820,10859.656,00000000
856830,10743.046,00000000
856840,10797.719,00000000
856850,10663.468,00000000
856860,10903.708,00000000
856870,10432.519,00000000
856880,10807.252,00000000
856890,11002.060,00000000
856900,10938.847,00000000
856910,11060.491,00000000
856920,11284.516,00000000
856930,11106.184,00000000
856940,10918.146,00000000
856950,10897.368,00000000
856960,10953.725,00000000
856970,10340.636,00000000
856980,10849.040,00000000
856990,11194.037,00000000
857000,11183.278,00000000
857010,10925.521,00000000
857020,11239.136,00000000
857030,11028.741,00000000
857040,10996.313,00000000
857050,10787.676,00000000
857060,10764.155,00000000
857070,10618.635,00000000
857080,10807.361,00000000
857090,10539.112,00000000
857100,10769.409,00000000
857110,10737.881,00000000
857120,10722.245,00000000
857130,11158.323,00000000
857140,11072.470,00000000
857150,11338.219,00000000
857160,11131.191,00000000
857170,10742.394,00000000
857180,10503.762,00000000
857190,11763.088,00000000
857200,10945.238,00000000
857210,11051.030,00000000
857220,10636.277,00000000
857230,11139.160,00000000
857240,10864.817,00000000
857250,10950.004,00000000
857260,10602.753,00000000
857270,11013.751,00000000
857280,11301.726,00000000
857290,10822.433,00000000
857300,10742.025,00000000
857310,10599.660,00000000
857320,10524.609,00000000
857330,10949.354,00000000
857340,11199.167,00000000
857350,11298.505,00000000
857360,11121.558,00000000
857370,10835.392,00000000
857380,10687.601,00000000
857390,10836.449,00000000
857400,11168.391,00000000
857410,11229.630,00000000
857420,11152.821,00000000
857430,10879.447,00000000
857440,10896.235,00000000
857450,10766.530,00000000
857460,10691.870,00000000
857470,10890.899,00000000
857480,10744.184,00000000
857490,11673.472,00000000
857500,10955.986,00000000
857510,10990.923,00000000
857520,10621.950,00000000
857530,10751.701,00000000
857540,11310.509,00000000
857550,11663.900,00000000
857560,11097.253,00000000
857570,10718.800,00000000
857580,10748.339,00000000
857590,10864.635,00000000
857600,11125.050,00000000
857610,10777.096,00000000
857620,11068.671,00000000
857630,11335.481,00000000
857640,11213.116,00000000
857650,11143.341,00000000
857660,11378.174,00000000
857670,10718.274,00000000
857680,10840.119,00000000
857690,10989.661,00000000
857700,10921.846,00000000
857710,10749.605,00000000
857720,10617.216,00000000
857730,10944.327,00000000
857740,10834.232,00000000
857750,10963.687,00000000
857760,11033.645,00000000
857770,10866.657,00000000
857780,11189.540,00000000
857790,11082.344,00000000
857800,10557.295,00000000
857810,10471.422,00000000
857820,10677.523,00000000
857830,10834.111,00000000
857840,11091.883,00000000
857850,10928.292,00000000
857860,10920.906,00000000
857870,10917.034,00000000
857880,10733.939,00000000
857890,10917.030,00000000
857900,10682.027,00000000
857910,11125.577,00000000
857920,11005.495,00000000
857930,11404.084,00000000
857940,11249.132,00000000
857950,10996.939,00000000
857960,11363.668,00000000
857970,11094.397,00000000
857980,11133.920,00000000
857990,11152.454,00000000
858000,11049.941,00000000
858010,10736.015,00000000
858020,10464.625,00000000
858030,11026.996,00000000
858040,11258.137,00000000
858050,10920.521,00000000
858060,10959.165,00000000
858070,10918.537,00000000
858080,11606.819,00000000
858090,11036.513,00000000
858100,10805.150,00000000
858110,10517.314,00000000
858120,10934.127,00000000
858130,10774.396,00000000
858140,10663.220,00000000
858150,10510.184,00000000
858160,10695.149,00000000
858170,10677.441,00000000
858180,11599.792,00000000
858190,11218.387,00000000
858200,10884.350,00000000
858210,10625.559,00000000
858220,10989.643,00000000
858230,10971.626,00000000
858240,10770.935,00000000
858250,11208.680,00000000
858260,11471.051,00000000
858270,10961.799,00000000
858280,10525.365,00000000
858290,10594.997,00000000
858300,10940.203,00000000
858310,11241.678,00000000
858320,11467.711,00000000
858330,11569.939,00000000
858340,11059.385,00000000
858350,11369.780,00000000
858360,10805.407,00000000
858370,10895.608,00000000
858380,10964.552,00000000
858390,11111.942,00000000
858400,11476.144,00000000
858410,11116.897,00000000
858420,11274.001,00000000
858430,10644.145,00000000
858440,10894.258,00000000
858450,10791.350,00000000
858460,10722.425,00000000
858470,10893.335,00000000
858480,11215.515,00000000
858490,10914.964,00000000
858500,10998.699,00000000
858510,10995.292,00000000
858520,10981.534,00000000
858530,11002.200,00000000
858540,10889.152,00000000
858550,10669.424,00000000
858560,11177.620,00000000
858570,10989.278,00000000
858580,10794.801,00000000
858590,11076.279,00000000
858600,10987.479,00000000
858610,11460.223,00000000
858620,10775.897,00000000
858630,10993.750,00000000
858640,11057.306,00000000
858650,10833.071,00000000
858660,10591.133,00000000
858670,11261.663,00000000
858680,11971.948,00000000
858690,11161.991,00000000
858700,10881.298,00000000
858710,11296.201,00000000
858720,10850.386,00000000
858730,10987.226,00000000
858740,11361.737,00000000
858750,11364.806,00000000
858760,11036.389,00000000
858770,10750.199,00000000
858780,10787.392,00000000
858790,10888.779,00000000
858800,11268.978,00000000
858810,11244.303,00000000
858820,10910.565,00000000
858830,11009.888,00000000
858840,10841.064,00000000
858850,10820.758,00000000
858860,11048.176,00000000
858870,11515.162,00000000
858880,10949.715,00000000
858890,10942.935,00000000
858900,11278.674,00000000
858910,11203.113,00000000
858920,11042.066,00000000
858930,11298.417,00000000
858940,11153.968,00000000
858950,11262.313,00000000
858960,11333.271,00000000
858970,10867.280,00000000
858980,10923.870,00000000
858990,11200.973,00000000
859000,11384.941,00000000
859010,11524.142,00000000
859020,11361.997,00000000
859030,11272.947,00000000
859040,10904.655,00000000
859050,10672.997,00000000
859060,11370.729,00000000
859070,10950.547,00000000
859080,10958.567,00000000
859090,11097.086,00000000
859100,10634.401,00000000
859110,11068.789,00000000
859120,10659.669,00000000
859130,10941.072,00000000
859140,10546.493,00000000
859150,10998.113,00000000
859160,10969.320,00000000
859170,11071.017,00000000
859180,10581.527,00000000
859190,10991.608,00000000
859200,11368.613,00000000
859210,11067.271,00000000
859220,11275.866,00000000
859230,10927.938,00000000
859240,11004.111,00000000
859250,11340.254,00000000
859260,10780.999,00000000
859270,10895.660,00000000
859280,10882.671,00000000
859290,11289.381,00000000
859300,11877.305,00000000
859310,11766.385,00000000
859320,11286.571,00000000
859330,11323.913,00000000
859340,10869.827,00000000
859350,11101.875,00000000
859360,11450.342,00000000
859370,10783.699,00000000
859380,10885.859,00000000
859390,11134.309,00000000
859400,11264.444,00000000
859410,11185.350,00000000
859420,11060.213,00000000
859430,11453.504,00000000
859440,11247.470,00000000
859450,11183.051,00000000
859460,10856.718,00000000
859470,11027.589,00000000
859480,11005.857,00000000
859490,10785.541,00000000
859500,11126.223,00000000
859510,10990.313,00000000
859520,11447.682,00000000
859530,11087.571,00000000
859540,11504.640,00000000
859550,11096.001,00000000
859560,10924.688,00000000
859570,11041.897,00000000
859580,11035.265,00000000
859590,11501.794,00000000
859600,11318.620,00000000
859610,11394.475,00000000
859620,11080.079,00000000
859630,11085.856,00000000
859640,11115.530,00000000
859650,11629.780,00000000
859660,11699.634,00000000
859670,11430.233,00000000
859680,10841.727,00000000
859690,11118.633,00000000
859700,11065.343,00000000
859710,11259.577,00000000
859720,11052.004,00000000
859730,11703.827,00000000
859740,11548.848,00000000
859750,11303.585,00000000
859760,11295.879,00000000
859770,11019.258,00000000
859780,11213.367,00000000
859790,11392.471,00000000
859800,11531.770,00000000
859810,11195.367,00000000
859820,11115.096,00000000
859830,10981.276,00000000
859840,10974.854,00000000
859850,10910.458,00000000
859860,11236.313,00000000
859870,11167.513,00000000
859880,11186.075,00000000
859890,10612.607,00000000
859900,11086.532,00000000
859910,10753.741,00000000
859920,11026.099,00000000
859930,11392.001,00000000
859940,11535.987,00000000
859950,11253.775,00000000
859960,10764.146,00000000
859970,11293.031,00000000
859980,11400.743,00000000
859990,10931.171,00000000
860000,11271.237,00000000
860010,11403.875,00000000
860020,11135.083,00000000
860030,10903.576,00000000
860040,11220.901,00000000
860050,10744.376,00000000
860060,11048.640,00000000
860070,11536.847,00000000
860080,11623.866,00000000
860090,11404.908,00000000
860100,10909.393,00000000
860110,10901.463,00000000
860120,10806.520,00000000
860130,11144.729,00000000
860140,10854.043,00000000
860150,11068.151,00000000
860160,11244.140,00000000
860170,11006.378,00000000
860180,11243.201,00000000
860190,10756.144,00000000
860200,10705.455,00000000
860210,10689.618,00000000
860220,11105.343,00000000
860230,10850.973,00000000
860240,10691.866,00000000
860250,10409.673,00000000
860260,11101.609,00000000
860270,11279.702,00000000
860280,11296.696,00000000
860290,11165.274,00000000
860300,10746.373,00000000
860310,10564.762,00000000
860320,11150.864,00000000
860330,10906.827,00000000
860340,11052.009,00000000
860350,11097.891,00000000
860360,11229.067,00000000
860370,11228.563,00000000
860380,11000.617,00000000
860390,10961.618,00000000
860400,11188.563,00000000
860410,11281.438,00000000
860420,11848.345,00000000
860430,11637.160,00000000
860440,11037.438,00000000
860450,10505.488,00000000
860460,10856.081,00000000
860470,10621.082,00000000
860480,11076.646,00000000
860490,10961.167,00000000
860500,11609.823,00000000
860510,11072.528,00000000
860520,10786.931,00000000
860530,11117.631,00000000
860540,11000.647,00000000
860550,11500.169,00000000
860560,11290.845,00000000
860570,11380.054,00000000
860580,11161.319,00000000
860590,10925.511,00000000
860600,11230.826,00000000
860610,10668.985,00000000
860620,10942.341,00000000
860630,11068.884,00000000
860640,11281.563,00000000
860650,10832.442,00000000
860660,10646.573,00000000
860670,10903.324,00000000
860680,10493.273,00000000
860690,10322.595,00000000
860700,10694.954,00000000
860710,10952.685,00000000
860720,11251.155,00000000
860730,10631.491,00000000
860740,11023.860,00000000
860750,11380.826,00000000
860760,11218.588,00000000
860770,10910.472,00000000
860780,11023.224,00000000
860790,10702.583,00000000
860800,10867.947,00000000
860810,11054.028,00000000
860820,10865.731,00000000
860830,11033.942,00000000
860840,11287.844,00000000
860850,11432.397,00000000
860860,11132.048,00000000
860870,10797.955,00000000
860880,10663.859,00000000
860890,10808.940,00000000
860900,10998.293,00000000
860910,11276.859,00000000
860920,11038.113,00000000
860930,10901.430,00000000
860940,10501.629,00000000
860950,10666.266,00000000
860960,10892.716,00000000
860970,11157.853,00000000
860980,11250.138,00000000
860990,11415.820,00000000
861000,10773.799,00000000
861010,10946.125,00000000
861020,10721.832,00000000
861030,10738.674,00000000
861040,10585.389,00000000
861050,10594.626,00000000
861060,11029.915,00000000
861070,10615.232,00000000
861080,10363.465,00000000
861090,10384.631,00000000
861100,10396.015,00000000
861110,11177.334,00000000
861120,10903.938,00000000
861130,10981.232,00000000
861140,11070.683,00000000
861150,10841.772,00000000
861160,10800.056,00000000
861170,11142.898,00000000
861180,10916.719,00000000
861190,10541.072,00000000
861200,10536.524,00000000
861210,10593.785,00000000
861220,10545.607,00000000
861230,18433.566,00000000
861240,22236.977,00000000
861250,23850.779,00000000
861260,24806.242,00000000
861270,23859.201,00000000
861280,24491.207,00000000
861290,24460.428,00000000
861300,20401.344,00000000
861310,15544.309,00000000
861320,13888.970,00000000
861330,13024.927,00000000
861340,12364.993,00000000
861350,12802.186,00000000
861360,12213.556,00000000
861370,12187.275,00000000
861380,12596.112,00000000
861390,12781.022,00000000
861400,12892.105,00000000
861410,12776.165,00000000
861420,12548.616,00000000
861430,12165.071,00000000
861440,11838.914,00000000
861450,12707.656,00000000
861460,12517.896,00000000
861470,12800.785,00000000
861480,16442.088,00000000
861490,16965.693,00000000
861500,15519.047,00000000
861510,13294.442,00000000
861520,16230.086,00000000
861530,17135.354,00000000
861540,17359.061,00000000
861550,17185.311,00000000
861560,17719.738,00000000
861570,17361.611,00000000
861580,17444.621,00000000
861590,18156.455,00000000
861600,18332.488,00000000
861610,18028.898,00000000
861620,17867.283,00000000
861630,17563.229,00000000
861640,17767.916,00000000
861650,17819.947,00000000
861660,17697.443,00000000
861670,18250.568,00000000
861680,18014.203,00000000
861690,17915.152,00000000
861700,17765.594,00000000
861710,17509.756,00000000
861720,16985.713,00000000
861730,17139.217,00000000
861740,17459.555,00000000
861750,17492.557,00000000
861760,17460.875,00000000
861770,17232.066,00000000
861780,17622.922,00000000
861790,17464.064,00000000
861800,17792.268,00000000
861810,17176.975,00000000
861820,17781.682,00000000
861830,17839.145,00000000
861840,17331.363,00000000
861850,17719.699,00000000
861860,17205.949,00000000
861870,19597.398,00000000
861880,32056.105,00000000
861890,47864.125,00000000
861900,62836.996,00000000
861910,75128.055,00000000
861920,84501.898,00000000
861930,91239.047,00000000
861940,94545.961,00000000
861950,96236.148,00000000
861960,97054.313,00000000
861970,97926.953,00000000
861980,97307.250,00000000
861990,96406.016,00000000
862000,95980.172,00000000
862010,95587.688,00000000
862020,94979.055,00000000
862030,94481.273,00000000
862040,93989.141,00000000
862050,92654.406,00000000
862060,91662.680,00000000
862070,90041.461,00000000
862080,89283.984,00000000
862090,88878.695,00000000
862100,87932.445,00000000
862110,88120.680,00000000
862120,86402.617,00000000
862130,86479.906,00000000
862140,85059.531,00000000
862150,85411.172,00000000
862160,84645.156,00000000
862170,84883.609,00000000
862180,84584.750,00000000
862190,83682.031,00000000
862200,83177.320,00000000
862210,83061.758,00000000
862220,83011.367,00000000
862230,87790.984,00000000
862240,103365.016,00000000
862250,109150.266,00000000
862260,111174.281,00000000
862270,90587.617,00000000
862280,77143.570,00000000
862290,72604.352,00000000
862300,70957.680,00000000
862310,70091.273,00000000
862320,69973.188,00000000
862330,69612.305,00000000
862340,69364.250,00000000
862350,68986.109,00000000
862360,69760.039,00000000
862370,69478.148,00000000
862380,69456.961,00000000
862390,69132.984,00000000
862400,69438.492,00000000
862410,69404.773,00000000
862420,69787.953,00000000
862430,69800.242,00000000
862440,69434.250,00000000
862450,69299.234,00000000
862460,69142.758,00000000
862470,68818.547,00000000
862480,69182.852,00000000
862490,68905.813,00000000
862500,68855.852,00000000
862510,69385.578,00000000
862520,68189.539,00000000
862530,65088.723,00000000
862540,63239.867,00000000
862550,62816.133,00000000
862560,62300.738,00000000
862570,62501.098,00000000
862580,62701.930,00000000
862590,62860.348,00000000
862600,62736.273,00000000
862610,62198.789,00000000
862620,62014.207,00000000
862630,62204.273,00000000
862640,61908.656,00000000
862650,62420.922,00000000
862660,62249.734,00000000
862670,62343.344,00000000
862680,62728.371,00000000
862690,62789.973,00000000
862700,62492.512,00000000
862710,63040.629,00000000
862720,62082.418,00000000
862730,63750.742,00000000
862740,63685.984,00000000
862750,63242.160,00000000
862760,62457.207,00000000
862770,62968.488,00000000
862780,62761.785,00000000
862790,62475.207,00000000
862800,63014.215,00000000
862810,62641.098,00000000
862820,62400.906,00000000
862830,62785.488,00000000
862840,62802.387,00000000
862850,62699.160,00000000
862860,62889.445,00000000
862870,63205.766,00000000
862880,63433.582,00000000
862890,62983.488,00000000
862900,63204.043,00000000
862910,62605.359,00000000
862920,62055.945,00000000
862930,62691.051,00000000
862940,62480.746,00000000
862950,61831.766,00000000
862960,62146.449,00000000
862970,62469.461,00000000
862980,62357.047,00000000
862990,62842.078,00000000
863000,62519.934,00000000
863010,63301.195,00000000
863020,63604.941,00000000
863030,62573.254,00000000
863040,62995.695,00000000
863050,63211.621,00000000
863060,62619.098,00000000
863070,62794.676,00000000
863080,63069.797,00000000
863090,62524.168,00000000
863100,62731.742,00000000
863110,62367.723,00000000
863120,62056.348,00000000
863130,62105.926,00000000
863140,62452.395,00000000
863150,63354.156,00000000
863160,62399.934,00000000
863170,62492.613,00000000
863180,63157.391,00000000
863190,62227.508,00000000
863200,62832.305,00000000
863210,62773.082,00000000
863220,62458.086,00000000
863230,62636.461,00000000
863240,63069.340,00000000
863250,62532.902,00000000
863260,62003.914,00000000
863270,62350.160,00000000
863280,62957.219,00000000
863290,63541.633,00000000
863300,62705.352,00000000
863310,62209.105,00000000
863320,62540.730,00000000
863330,62864.637,00000000
863340,62431.031,00000000
863350,62782.145,00000000
863360,63633.367,00000000
863370,62923.664,00000000
863380,62949.477,00000000
863390,62711.816,00000000
863400,62369.102,00000000
863410,62608.418,00000000
863420,62868.441,00000000
863430,62878.063,00000000
863440,63207.289,00000000
863450,62938.711,00000000
863460,62895.480,00000000
863470,62545.078,00000000
863480,62646.883,00000000
863490,62684.207,00000000
863500,63047.441,00000000
863510,62851.160,00000000
863520,63030.133,00000000
863530,63097.074,00000000
863540,62605.750,00000000
863550,62710.680,00000000
863560,62734.930,00000000
863570,62124.293,00000000
863580,62223.652,00000000
863590,62310.832,00000000
863600,62775.719,00000000
863610,62058.359,00000000
863620,61916.836,00000000
863630,62401.906,00000000
863640,63158.180,00000000
863650,62728.633,00000000
863660,62453.883,00000000
863670,62482.371,00000000
863680,61986.816,00000000
863690,62758.926,00000000
863700,63116.875,00000000
863710,62979.813,00000000
863720,62327.684,00000000
863730,61938.977,00000000
863740,62888.598,00000000
863750,62283.027,00000000
863760,62931.801,00000000
863770,62585.180,00000000
863780,62851.102,00000000
863790,62396.750,00000000
863800,62222.320,00000000
863810,62402.535,00000000
863820,62494.203,00000000
863830,62236.613,00000000
863840,62252.977,00000000
863850,62708.219,00000000
863860,63104.332,00000000
863870,63024.547,00000000
863880,62365.242,00000000
863890,61635.816,00000000
863900,62370.535,00000000
863910,63150.367,00000000
863920,62752.199,00000000
863930,62703.977,00000000
863940,63105.301,00000000
863950,61867.535,00000000
863960,63282.023,00000000
863970,63049.727,00000000
863980,63346.086,00000000
863990,63113.984,00000000
864000,62977.395,00000000
864010,62360.555,00000000
864020,61995.875,00000000
864030,62103.352,00000000
864040,62593.211,00000000
864050,63897.402,00000000
864060,63696.512,00000000
864070,62964.582,00000000
864080,62475.852,00000000
864090,62364.715,00000000
864100,62779.238,00000000
864110,62427.766,00000000
864120,62538.891,00000000
864130,62666.523,00000000
864140,62363.164,00000000
864150,62808.625,00000000
864160,62175.793,00000000
864170,62363.047,00000000
864180,62486.410,00000000
864190,62337.180,00000000
864200,63051.262,00000000
864210,63238.879,00000000
864220,63147.176,00000000
864230,62791.898,00000000
864240,63130.367,00000000
864250,62291.566,00000000
864260,62688.844,00000000
864270,63064.199,00000000
864280,62629.039,00000000
864290,62179.004,00000000
864300,62700.934,00000000
864310,63058.688,00000000
864320,62872.305,00000000
864330,63767.410,00000000
864340,63339.098,00000000
864350,62103.375,00000000
864360,62010.410,00000000
864370,47664.316,00000000
864380,24093.367,00000000
864390,15683.595,00000000
864400,12509.968,00000000
864410,11461.926,00000000
864420,10732.331,00000000
864430,10676.298,00000000
864440,11207.300,00000000
864450,10921.494,00000000
864460,10857.489,00000000
864470,10899.546,00000000
864480,10747.188,00000000
864490,10835.186,00000000
864500,10988.857,00000000
864510,11138.178,00000000
864520,10943.780,00000000
864530,11311.231,00000000
864540,11385.302,00000000
864550,11110.692,00000000
864560,10857.468,00000000
864570,10708.577,00000000
864580,10962.334,00000000
864590,11088.072,00000000
864600,10603.926,00000000
864610,11097.036,00000000
864620,10961.131,00000000
864630,11199.297,00000000
864640,10956.896,00000000
864650,11195.608,00000000
864660,10699.977,00000000
864670,10864.514,00000000
864680,11460.830,00000000
864690,11690.589,00000000
864700,11084.687,00000000
864710,10337.481,00000000
864720,10526.994,00000000
864730,11128.945,00000000
864740,11643.258,00000000
864750,11180.404,00000000
864760,11204.190,00000000
864770,11244.818,00000000
864780,11029.096,00000000
864790,10956.670,00000000
864800,10469.913,00000000
864810,10876.776,00000000
864820,11115.212,00000000
864830,11671.544,00000000
864840,11211.078,00000000
864850,11356.639,00000000
864860,11045.911,00000000
864870,10538.329,00000000
864880,10959.550,00000000
864890,10978.809,00000000
864900,11651.376,00000000
864910,11111.283,00000000
864920,11659.389,00000000
864930,11127.580,00000000
864940,11413.499,00000000
864950,11179.672,00000000
864960,11324.543,00000000
864970,11464.042,00000000
864980,11423.295,00000000
864990,11430.233,00000000
865000,10739.051,00000000
865010,11183.389,00000000
865020,11570.496,00000000
865030,11465.413,00000000
865040,11610.124,00000000
865050,11319.286,00000000
865060,11216.479,00000000
865070,10981.840,00000000
865080,10742.349,00000000
865090,11023.422,00000000
865100,11344.150,00000000
865110,11002.869,00000000
865120,11203.646,00000000
865130,11249.708,00000000
865140,10997.656,00000000
865150,11333.894,00000000
865160,10936.526,00000000
865170,11143.337,00000000
865180,11106.513,00000000
865190,11094.414,00000000
865200,11045.262,00000000
865210,11369.540,00000000
865220,10705.553,00000000
865230,11013.948,00000000
865240,11295.517,00000000
865250,11455.441,00000000
865260,11594.438,00000000
865270,10996.271,00000000
865280,10963.290,00000000
865290,11022.019,00000000
865300,11356.604,00000000
865310,11606.902,00000000
865320,11531.740,00000000
865330,11173.675,00000000
865340,11204.094,00000000
865350,10604.667,00000000
865360,10748.908,00000000
865370,11104.570,00000000
865380,12827.325,00000000
865390,13096.168,00000000
865400,13406.049,00000000
865410,13871.997,00000000
865420,12032.637,00000000
865430,11634.909,00000000
865440,11638.859,00000000
865450,11923.547,00000000
865460,12158.621,00000000
865470,11653.521,00000000
865480,11079.479,00000000
865490,11312.559,00000000
865500,11044.451,00000000
865510,11047.714,00000000
865520,10980.377,00000000
865530,11030.640,00000000
865540,10260.424,00000000
865550,10570.979,00000000
865560,11185.406,00000000
865570,11104.211,00000000
865580,11048.643,00000000
865590,11447.716,00000000
865600,11141.860,00000000
865610,11670.023,00000000
865620,11353.405,00000000
865630,10781.416,00000000
865640,10890.998,00000000
865650,11134.927,00000000
865660,11251.837,00000000
865670,11223.797,00000000
865680,11004.070,00000000
865690,11218.836,00000000
865700,10639.018,00000000
865710,10924.468,00000000
865720,11377.711,00000000
865730,11561.660,00000000
865740,11318.839,00000000
865750,11829.464,00000000
865760,10885.260,00000000
865770,10853.124,00000000
865780,10923.940,00000000
865790,11130.543,00000000
865800,11309.021,00000000
865810,11328.514,00000000
865820,11685.095,00000000
865830,11005.837,00000000
865840,10976.076,00000000
865850,11294.585,00000000
865860,11484.851,00000000
865870,11170.143,00000000
865880,10967.758,00000000
865890,11036.585,00000000
865900,11262.192,00000000
865910,11130.094,00000000
865920,12332.468,00000000
865930,14764.408,00000000
865940,15929.908,00000000
865950,15979.662,00000000
865960,13031.017,00000000
865970,11352.405,00000000
865980,11599.051,00000000
865990,12367.171,00000000
866000,12729.189,00000000
866010,12104.609,00000000
866020,11712.503,00000000
866030,11513.972,00000000
866040,11550.800,00000000
866050,11577.957,00000000
866060,11135.060,00000000
866070,11027.238,00000000
866080,11310.047,00000000
866090,11285.705,00000000
866100,10993.518,00000000
866110,10873.801,00000000
866120,10788.525,00000000
866130,10710.449,00000000
866140,11265.449,00000000
866150,11344.526,00000000
866160,11508.035,00000000
866170,10969.584,00000000
866180,10607.411,00000000
866190,11188.107,00000000
866200,10980.801,00000000
866210,11414.223,00000000
866220,11264.055,00000000
866230,11264.035,00000000
866240,11324.633,00000000
866250,10911.532,00000000
866260,10767.917,00000000
866270,10655.366,00000000
866280,10996.029,00000000
866290,11495.583,00000000
866300,10849.396,00000000
866310,10470.598,00000000
866320,10654.962,00000000
866330,11145.435,00000000
866340,11446.778,00000000
866350,11735.933,00000000
866360,11429.979,00000000
866370,11479.633,00000000
866380,11023.057,00000000
866390,11143.179,00000000
866400,11057.739,00000000
866410,10659.154,00000000
866420,10887.159,00000000
866430,10960.810,00000000
866440,11299.723,00000000
866450,11162.854,00000000
866460,10880.379,00000000
866470,10839.022,00000000
866480,10720.141,00000000
866490,11023.453,00000000
866500,11113.700,00000000
866510,11116.396,00000000
866520,10947.430,00000000
866530,11057.614,00000000
866540,10976.173,00000000
866550,11300.865,00000000
866560,11231.936,00000000
866570,11070.385,00000000
866580,11009.787,00000000
866590,11401.860,00000000
866600,10862.066,00000000
866610,11031.299,00000000
866620,10656.109,00000000
866630,11261.751,00000000
866640,11234.748,00000000
866650,11085.429,00000000
866660,10535.038,00000000
866670,10369.903,00000000
866680,10951.066,00000000
866690,10672.469,00000000
866700,11262.298,00000000
866710,11053.905,00000000
866720,11312.879,00000000
866730,11176.260,00000000
866740,10714.068,00000000
866750,10646.764,00000000
866760,10805.246,00000000
866770,11156.209,00000000
866780,11447.332,00000000
866790,11363.753,00000000
866800,10856.609,00000000
866810,10786.417,00000000
866820,11089.325,00000000
866830,10876.015,00000000
866840,11394.774,00000000
866850,11613.392,00000000
866860,11752.647,00000000
866870,10941.840,00000000
866880,10780.097,00000000
866890,10724.955,00000000
866900,11017.567,00000000
866910,11258.336,00000000
866920,11216.859,00000000
866930,11603.386,00000000
866940,11390.406,00000000
866950,11113.042,00000000
866960,10486.107,00000000
866970,10779.482,00000000
866980,11178.568,00000000
866990,11320.282,00000000
867000,11221.415,00000000
867010,11012.141,00000000
867020,10837.726,00000000
867030,10746.609,00000000
867040,11064.007,00000000
867050,10921.333,00000000
867060,10838.501,00000000
867070,11339.328,00000000
867080,10921.609,00000000
867090,10436.721,00000000
867100,10392.652,00000000
867110,10573.260,00000000
867120,11486.013,00000000
867130,11212.560,00000000
867140,10894.276,00000000
867150,10463.304,00000000
867160,10720.637,00000000
867170,11008.540,00000000
867180,10657.802,00000000
867190,11200.784,00000000
867200,11485.212,00000000
867210,11654.955,00000000
867220,10960.076,00000000
867230,10812.357,00000000
867240,11176.383,00000000
867250,11055.723,00000000
867260,11101.518,00000000
867270,11344.506,00000000
867280,11148.004,00000000
867290,10744.827,00000000
867300,11337.697,00000000
867310,10855.565,00000000
867320,10895.939,00000000
867330,11194.151,00000000
867340,11250.802,00000000
867350,11014.342,00000000
867360,11021.061,00000000
867370,10897.332,00000000
867380,10951.463,00000000
867390,10680.707,00000000
867400,10956.569,00000000
867410,11170.470,00000000
867420,11204.072,00000000
867430,10894.750,00000000
867440,10734.003,00000000
867450,11028.544,00000000
867460,11069.352,00000000
867470,11315.200,00000000
867480,11356.304,00000000
867490,11565.738,00000000
867500,11148.268,00000000
867510,11111.000,00000000
867520,11353.876,00000000
867530,11343.563,00000000
867540,11810.633,00000000
867550,11301.380,00000000
867560,11136.083,00000000
867570,10691.874,00000000
867580,10564.573,00000000
867590,10649.904,00000000
867600,10881.759,00000000
867610,11425.176,00000000
867620,11555.924,00000000
867630,10766.983,00000000
867640,11016.311,00000000
867650,11188.638,00000000
867660,10785.574,00000000
867670,11233.840,00000000
867680,11402.688,00000000
867690,11166.214,00000000
867700,11523.823,00000000
867710,11028.399,00000000
867720,11121.027,00000000
867730,10639.351,00000000
867740,10832.214,00000000
867750,10955.444,00000000
867760,10752.035,00000000
867770,11439.733,00000000
867780,11081.380,00000000
867790,10962.541,00000000
867800,10825.087,00000000
867810,11096.117,00000000
867820,11393.418,00000000
867830,10912.447,00000000
867840,11557.559,00000000
867850,11140.790,00000000
867860,10952.744,00000000
867870,11168.384,00000000
867880,10826.521,00000000
867890,11170.062,00000000
867900,11069.445,00000000
867910,10791.358,00000000
867920,10843.837,00000000
867930,11108.019,00000000
867940,11331.235,00000000
867950,11152.845,00000000
867960,10844.928,00000000
867970,11483.091,00000000
867980,11405.768,00000000
867990,10862.467,00000000
868000,11299.413,00000000
868010,11087.152,00000000
868020,11006.518,00000000
868030,11544.979,00000000
868040,11445.272,00000000
868050,11672.650,00000000
868060,11113.710,00000000
868070,10918.519,00000000
868080,11391.503,00000000
868090,11402.165,00000000
868100,11292.576,00000000
868110,11295.224,00000000
868120,11344.487,00000000
868130,11464.557,00000000
868140,10385.374,00000000
868150,10288.364,00000000
868160,10921.644,00000000
868170,11467.190,00000000
868180,11483.404,00000000
868190,11404.007,00000000
868200,11112.710,00000000
868210,11428.536,00000000
868220,10789.800,00000000
868230,10911.436,00000000
868240,11258.256,00000000
868250,11545.749,00000000
868260,11438.423,00000000
868270,11452.020,00000000
868280,11175.200,00000000
868290,11250.565,00000000
868300,10692.935,00000000
868310,10763.710,00000000
868320,11263.009,00000000
868330,10625.950,00000000
868340,11039.044,00000000
868350,11020.710,00000000
868360,11002.830,00000000
868370,11354.207,00000000
868380,11066.257,00000000
868390,11298.557,00000000
868400,10862.058,00000000
868410,10913.547,00000000
868420,11056.814,00000000
868430,11252.854,00000000
868440,10783.328,00000000
868450,11259.975,00000000
868460,11098.062,00000000
868470,11704.876,00000000
868480,11411.937,00000000
868490,10899.304,00000000
868500,10550.976,00000000
868510,11647.436,00000000
868520,10943.431,00000000
868530,10807.253,00000000
868540,10879.312,00000000
868550,10700.805,00000000
868560,10692.784,00000000
868570,10511.558,00000000
868580,10964.641,00000000
868590,10502.995,00000000
868600,10761.938,00000000
868610,11078.646,00000000
868620,10918.053,00000000
868630,10358.903,00000000
868640,10735.226,00000000
868650,10710.898,00000000
868660,11182.252,00000000
868670,10983.606,00000000
868680,10959.493,00000000
868690,10343.268,00000000
868700,10508.922,00000000
868710,10678.777,00000000
868720,10823.312,00000000
868730,10922.929,00000000
868740,11062.155,00000000
868750,10878.272,00000000
868760,10705.956,00000000
868770,10868.745,00000000
868780,10871.494,00000000
868790,10695.271,00000000
868800,10983.351,00000000
868810,10995.596,00000000
868820,10909.953,00000000
868830,11068.062,00000000
868840,10919.739,00000000
868850,11249.876,00000000
868860,11281.179,00000000
868870,11431.526,00000000
868880,11492.501,00000000
868890,11191.510,00000000
868900,10977.653,00000000
868910,11229.705,00000000
868920,11011.800,00000000
868930,10913.653,00000000
868940,11365.670,00000000
868950,10809.157,00000000
868960,10668.313,00000000
868970,10734.612,00000000
868980,10987.665,00000000
868990,11122.941,00000000
869000,11648.311,00000000
869010,11201.710,00000000
869020,10775.177,00000000
869030,10914.665,00000000
869040,10757.128,00000000
869050,10992.491,00000000
869060,10731.277,00000000
869070,10651.335,00000000
869080,10726.703,00000000
869090,10998.525,00000000
869100,11338.685,00000000
869110,10851.279,00000000
869120,10418.205,00000000
869130,10773.129,00000000
869140,10771.869,00000000
869150,11205.234,00000000
869160,11636.938,00000000
869170,10945.179,00000000
869180,10985.157,00000000
869190,11062.699,00000000
869200,10983.192,00000000
869210,11278.974,00000000
869220,11327.853,00000000
869230,11050.019,00000000
869240,11389.815,00000000
869250,10865.706,00000000
869260,10740.845,00000000
869270,10755.801,00000000
869280,10868.562,00000000
869290,10973.906,00000000
869300,11185.324,00000000
869310,10943.927,00000000
869320,10844.298,00000000
869330,10712.202,00000000
869340,11084.743,00000000
869350,10737.307,00000000
869360,11158.930,00000000
869370,18092.576,00000000
869380,22119.365,00000000
869390,23621.932,00000000
869400,23937.350,00000000
869410,23667.920,00000000
869420,25197.770,00000000
869430,25698.512,00000000
869440,21610.064,00000000
869450,15773.899,00000000
869460,13465.097,00000000
869470,12929.668,00000000
869480,12386.933,00000000
869490,12551.548,00000000
869500,12593.907,00000000
869510,12630.145,00000000
869520,12455.396,00000000
869530,12334.904,00000000
869540,12416.619,00000000
869550,12434.256,00000000
869560,11948.886,00000000
869570,12607.584,00000000
869580,12872.298,00000000
869590,12695.355,00000000
869600,12912.583,00000000
869610,12134.125,00000000
869620,12730.001,00000000
869630,12688.229,00000000
869640,12754.697,00000000
869650,13068.900,00000000
869660,12868.022,00000000
869670,12180.720,00000000
869680,12759.910,00000000
869690,12680.876,00000000
869700,12397.871,00000000
869710,12081.815,00000000
869720,12454.469,00000000
869730,12637.842,00000000
869740,12207.298,00000000
869750,12050.099,00000000
869760,12357.201,00000000
869770,12523.606,00000000
869780,13106.977,00000000
869790,12869.731,00000000
869800,12783.223,00000000
869810,12022.951,00000000
869820,12541.173,00000000
869830,12541.894,00000000
869840,12424.454,00000000
869850,12364.052,00000000
869860,12258.293,00000000
869870,12848.774,00000000
869880,12097.075,00000000
869890,12622.699,00000000
869900,12038.351,00000000
869910,12297.179,00000000
869920,12821.490,00000000
869930,12364.861,00000000
869940,12394.304,00000000
869950,12158.824,00000000
869960,11805.928,00000000
869970,12380.884,00000000
869980,12572.587,00000000
869990,12840.983,00000000
870000,12602.081,00000000
870010,12487.674,00000000
870020,12212.841,00000000
870030,12335.802,00000000
870040,12134.692,00000000
870050,12717.807,00000000
870060,12611.205,00000000
870070,12928.966,00000000
870080,12371.851,00000000
870090,12021.162,00000000
870100,12057.106,00000000
870110,12988.192,00000000
870120,12711.081,00000000
870130,12834.375,00000000
870140,12718.583,00000000
870150,12992.987,00000000
870160,12587.611,00000000
870170,12798.063,00000000
870180,12795.106,00000000
870190,12783.767,00000000
870200,12395.092,00000000
870210,13193.352,00000000
870220,12388.041,00000000
870230,12401.503,00000000
870240,12828.490,00000000
870250,12554.273,00000000
870260,12798.098,00000000
870270,13023.482,00000000
870280,12841.973,00000000
870290,12318.089,00000000
870300,12237.549,00000000
870310,12078.807,00000000
870320,12273.359,00000000
870330,12660.376,00000000
870340,13020.523,00000000
870350,12975.261,00000000
870360,13296.608,00000000
870370,16578.855,00000000
870380,45522.570,00000000
870390,55801.926,00000000
870400,60220.266,00000000
870410,61988.578,00000000
870420,62896.723,00000000
870430,62752.711,00000000
870440,61936.172,00000000
870450,62084.004,00000000
870460,61963.133,00000000
870470,62134.535,00000000
870480,62258.070,00000000
870490,62467.832,00000000
870500,62277.055,00000000
870510,62232.789,00000000
870520,61985.430,00000000
870530,61591.191,00000000
870540,62290.055,00000000
870550,62650.039,00000000
870560,62214.648,00000000
870570,62340.094,00000000
870580,61869.281,00000000
870590,62377.410,00000000
870600,62220.559,00000000
870610,62528.250,00000000
870620,62720.086,00000000
870630,63022.156,00000000
870640,63117.691,00000000
870650,62029.465,00000000
870660,62297.324,00000000
870670,62657.762,00000000
870680,62119.895,00000000
870690,62503.094,00000000
870700,63022.238,00000000
870710,63122.457,00000000
870720,62455.242,00000000
870730,62280.254,00000000
870740,62173.582,00000000
870750,62059.918,00000000
870760,62259.656,00000000
870770,62052.504,00000000
870780,62571.102,00000000
870790,62097.465,00000000
870800,62270.816,00000000
870810,62107.355,00000000
870820,62311.930,00000000
870830,62274.180,00000000
870840,62879.063,00000000
870850,62194.438,00000000
870860,62930.270,00000000
870870,63239.066,00000000
870880,63466.840,00000000
870890,63419.520,00000000
870900,63147.684,00000000
870910,62823.262,00000000
870920,62857.844,00000000
870930,61928.645,00000000
870940,62187.723,00000000
870950,61754.672,00000000
870960,62330.953,00000000
870970,62312.039,00000000
870980,62460.859,00000000
870990,62135.777,00000000
871000,62414.727,00000000
871010,61891.445,00000000
871020,61990.133,00000000
871030,61967.195,00000000
871040,62986.461,00000000
871050,62282.566,00000000
871060,62643.594,00000000
871070,61678.629,00000000
871080,61739.098,00000000
871090,62378.043,00000000
871100,62721.652,00000000
871110,62376.180,00000000
871120,63338.223,00000000
871130,62733.547,00000000
871140,61607.777,00000000
871150,62102.000,00000000
871160,62940.621,00000000
871170,62657.723,00000000
871180,63240.332,00000000
871190,63042.504,00000000
871200,63126.070,00000000
871210,62785.188,00000000
871220,62823.820,00000000
871230,62369.398,00000000
871240,62601.219,00000000
871250,63239.145,00000000
871260,63139.434,00000000
871270,63350.391,00000000
871280,62886.770,00000000
871290,62470.285,00000000
871300,62048.359,00000000
871310,62216.762,00000000
871320,62712.840,00000000
871330,62520.141,00000000
871340,62758.414,00000000
871350,62716.777,00000000
871360,62482.734,00000000
871370,62710.684,00000000
871380,63090.320,00000000
871390,62444.441,00000000
871400,62315.270,00000000
871410,62312.512,00000000
871420,62380.543,00000000
871430,62482.406,00000000
871440,62979.277,00000000
871450,62083.938,00000000
871460,61876.762,00000000
871470,62959.613,00000000
871480,62131.535,00000000
871490,61707.555,00000000
871500,62199.168,00000000
871510,62381.254,00000000
871520,62914.313,00000000
871530,62522.484,00000000
871540,62675.984,00000000
871550,62612.957,00000000
871560,62119.395,00000000
871570,62387.551,00000000
871580,62591.012,00000000
871590,62589.473,00000000
871600,62774.664,00000000
871610,63182.973,00000000
871620,62912.789,00000000
871630,63010.738,00000000
871640,62505.133,00000000
871650,61895.293,00000000
871660,62636.828,00000000
871670,62722.168,00000000
871680,62642.645,00000000
871690,63223.582,00000000
871700,62254.711,00000000
871710,62255.277,00000000
871720,61851.957,00000000
871730,62476.676,00000000
871740,63004.680,00000000
871750,63341.531,00000000
871760,62296.824,00000000
871770,61672.270,00000000
871780,62392.551,00000000
871790,62472.879,00000000
871800,62799.355,00000000
871810,63279.859,00000000
871820,62932.699,00000000
871830,62721.059,00000000
871840,62954.691,00000000
871850,62745.328,00000000
871860,62721.793,00000000
871870,62556.844,00000000
871880,62736.984,00000000
871890,62959.988,00000000
871900,62060.215,00000000
871910,61443.281,00000000
871920,61522.145,00000000
871930,62731.035,00000000
871940,62555.004,00000000
871950,62705.449,00000000
871960,63061.434,00000000
871970,63510.813,00000000
871980,62652.082,00000000
871990,62330.926,00000000
872000,62400.148,00000000
872010,62703.891,00000000
872020,62561.551,00000000
872030,62654.934,00000000
872040,62768.074,00000000
872050,62025.102,00000000
872060,62310.719,00000000
872070,62336.109,00000000
872080,62638.723,00000000
872090,62765.578,00000000
872100,62723.035,00000000
872110,62280.906,00000000
872120,62105.980,00000000
872130,62304.422,00000000
872140,62295.563,00000000
872150,62537.648,00000000
872160,62453.355,00000000
872170,62715.742,00000000
872180,62660.512,00000000
872190,62407.848,00000000
872200,61992.305,00000000
872210,62041.684,00000000
872220,62411.965,00000000
872230,62892.809,00000000
872240,62610.434,00000000
872250,62378.027,00000000
872260,61987.344,00000000
872270,62116.613,00000000
872280,61573.719,00000000
872290,62925.039,00000000
872300,62617.965,00000000
872310,62628.762,00000000
872320,62603.684,00000000
872330,63000.395,00000000
872340,62864.996,00000000
872350,62409.129,00000000
872360,63294.676,00000000
872370,63291.750,00000000
872380,62321.180,00000000
872390,62772.500,00000000
872400,62897.965,00000000
872410,62227.066,00000000
872420,61742.480,00000000
872430,62305.441,00000000
872440,62831.543,00000000
872450,62364.480,00000000
872460,62411.383,00000000
872470,61922.547,00000000
872480,62027.547,00000000
872490,61928.375,00000000
872500,63238.723,00000000
872510,51942.715,00000000
872520,26351.775,00000000
872530,17054.811,00000000
872540,13509.368,00000000
872550,11948.347,00000000
872560,11267.460,00000000
872570,11222.096,00000000
872580,10961.829,00000000
872590,11112.122,00000000
872600,10659.332,00000000
872610,10837.870,00000000
872620,10859.711,00000000
872630,10880.915,00000000
872640,11066.552,00000000
872650,11244.497,00000000
872660,10574.885,00000000
872670,11228.046,00000000
872680,11231.595,00000000
872690,11074.772,00000000
872700,11148.049,00000000
872710,10963.833,00000000
872720,11129.672,00000000
872730,11102.799,00000000
872740,11045.453,00000000
872750,11364.613,00000000
872760,10859.276,00000000
872770,10938.378,00000000
872780,10885.994,00000000
872790,11185.493,00000000
872800,11361.484,00000000
872810,11373.596,00000000
872820,11075.436,00000000
872830,10992.190,00000000
872840,10492.021,00000000
872850,10793.479,00000000
872860,10824.646,00000000
872870,11041.712,00000000
872880,11372.860,00000000
872890,10906.678,00000000
872900,10554.571,00000000
872910,10728.827,00000000
872920,11128.428,00000000
872930,11008.872,00000000
872940,11264.889,00000000
872950,10933.291,00000000
872960,10887.964,00000000
872970,10872.478,00000000
872980,10683.772,00000000
872990,10845.323,00000000
873000,10970.459,00000000
873010,11012.104,00000000
873020,11110.244,00000000
873030,11086.746,00000000
873040,10428.348,00000000
873050,10522.880,00000000
873060,10436.563,00000000
873070,10847.163,00000000
873080,11627.257,00000000
873090,11675.080,00000000
873100,10846.399,00000000
873110,10668.039,00000000
873120,10615.299,00000000
873130,11221.909,00000000
873140,11398.875,00000000
873150,10823.875,00000000
873160,10643.000,00000000
873170,10944.004,00000000
873180,10915.469,00000000
873190,10817.963,00000000
873200,11036.617,00000000
873210,11126.578,00000000
873220,11199.682,00000000
873230,11202.053,00000000
873240,11116.533,00000000
873250,10993.368,00000000
873260,10970.988,00000000
873270,11024.045,00000000
873280,11048.809,00000000
873290,10702.295,00000000
873300,11301.399,00000000
873310,11186.458,00000000
873320,10800.099,00000000
873330,10786.509,00000000
873340,10599.072,00000000
873350,10855.426,00000000
873360,11484.111,00000000
873370,11147.176,00000000
873380,11206.173,00000000
873390,10640.545,00000000
873400,10495.773,00000000
873410,10762.362,00000000
873420,10763.541,00000000
873430,11458.355,00000000
873440,11134.606,00000000
873450,11008.258,00000000
873460,11299.187,00000000
873470,10996.832,00000000
873480,11290.724,00000000
873490,11088.109,00000000
873500,11224.353,00000000
873510,11038.358,00000000
873520,11116.078,00000000
873530,10756.593,00000000
873540,10679.711,00000000
873550,10557.839,00000000
873560,10441.128,00000000
873570,11229.781,00000000
873580,11167.146,00000000
873590,10940.318,00000000
873600,10578.414,00000000
873610,10443.958,00000000
873620,11092.597,00000000
873630,11094.837,00000000
873640,11254.526,00000000
873650,11271.601,00000000
873660,10885.906,00000000
873670,11250.902,00000000
873680,10896.711,00000000
873690,11226.070,00000000
873700,11088.764,00000000
873710,10771.006,00000000
873720,10809.342,00000000
873730,11083.146,00000000
873740,10819.303,00000000
873750,10825.364,00000000
873760,11482.582,00000000
873770,11697.886,00000000
873780,11245.590,00000000
873790,11059.179,00000000
873800,10493.796,00000000
873810,10642.653,00000000
873820,10712.896,00000000
873830,10985.185,00000000
873840,10754.085,00000000
873850,11089.594,00000000
873860,10665.512,00000000
873870,10844.927,00000000
873880,10784.974,00000000
873890,11050.562,00000000
873900,10775.697,00000000
873910,11265.908,00000000
873920,11282.701,00000000
873930,10729.599,00000000
873940,10587.389,00000000
873950,10403.388,00000000
873960,10529.713,00000000
873970,11044.891,00000000
873980,11278.218,00000000
873990,10859.147,00000000
874000,11240.240,00000000
874010,10677.378,00000000
874020,11078.191,00000000
874030,10987.464,00000000
874040,11086.393,00000000
874050,11206.157,00000000
874060,11115.451,00000000
874070,10999.292,00000000
874080,10634.090,00000000
874090,10660.975,00000000
874100,10993.604,00000000
874110,11435.487,00000000
874120,11196.889,00000000
874130,11121.198,00000000
874140,10709.021,00000000
874150,10926.882,00000000
874160,11266.525,00000000
874170,10960.556,00000000
874180,10997.758,00000000
874190,11052.569,00000000
874200,10963.954,00000000
874210,10981.348,00000000
874220,10968.752,00000000
874230,10603.111,00000000
874240,10640.123,00000000
874250,11087.325,00000000
874260,10950.463,00000000
874270,11136.325,00000000
874280,10837.534,00000000
874290,10973.150,00000000
874300,10754.647,00000000
874310,10673.670,00000000
874320,10742.312,00000000
874330,10875.098,00000000
874340,11426.229,00000000
874350,11071.684,00000000
874360,11257.389,00000000
874370,11186.677,00000000
874380,10914.330,00000000
874390,11448.708,00000000
874400,11419.241,00000000
874410,11096.211,00000000
874420,10938.216,00000000
874430,11084.393,00000000
874440,10763.006,00000000
874450,10480.792,00000000
874460,11230.508,00000000
874470,11514.916,00000000
874480,10991.745,00000000
874490,10677.343,00000000
874500,10303.862,00000000
874510,11254.563,00000000
874520,10815.853,00000000
874530,11130.269,00000000
874540,11304.450,00000000
874550,10996.754,00000000
874560,11381.101,00000000
874570,10810.416,00000000
874580,11182.735,00000000
874590,10837.483,00000000
874600,11007.120,00000000
874610,11059.755,00000000
874620,11424.474,00000000
874630,10962.714,00000000
874640,10906.975,00000000
874650,11419.030,00000000
874660,11168.434,00000000
874670,11113.235,00000000
874680,11081.489,00000000
874690,11012.874,00000000
874700,11204.844,00000000
874710,10971.305,00000000
874720,10541.497,00000000
874730,10715.702,00000000
874740,10850.370,00000000
874750,11348.498,00000000
874760,11225.623,00000000
874770,11412.845,00000000
874780,11331.534,00000000
874790,10919.044,00000000
874800,10823.477,00000000
874810,10955.687,00000000
874820,11208.848,00000000
874830,11425.596,00000000
874840,10854.620,00000000
874850,11088.959,00000000
874860,11203.558,00000000
874870,10797.558,00000000
874880,11070.755,00000000
874890,11482.493,00000000
874900,11340.825,00000000
874910,10991.682,00000000
874920,10733.222,00000000
874930,11093.659,00000000
874940,11099.152,00000000
874950,11428.890,00000000
874960,11536.212,00000000
874970,11830.761,00000000
874980,11108.250,00000000
874990,11049.621,00000000
875000,11077.782,00000000
875010,10851.311,00000000
875020,10794.255,00000000
875030,10965.356,00000000
875040,11797.475,00000000
875050,11191.096,00000000
875060,10774.574,00000000
875070,10534.410,00000000
875080,10505.713,00000000
875090,11148.708,00000000
875100,11283.117,00000000
875110,11533.457,00000000
875120,10905.794,00000000
875130,10789.123,00000000
875140,10912.784,00000000
875150,10936.807,00000000
875160,11176.189,00000000
875170,11674.361,00000000
875180,11528.944,00000000
875190,11325.181,00000000
875200,10959.520,00000000
875210,10940.856,00000000
875220,10519.212,00000000
875230,11089.520,00000000
875240,10975.448,00000000
875250,10734.223,00000000
875260,10487.752,00000000
875270,10661.491,00000000
875280,11066.798,00000000
875290,11183.685,00000000
875300,10915.950,00000000
875310,11375.058,00000000
875320,11158.743,00000000
875330,11031.175,00000000
875340,11034.737,00000000
875350,10823.835,00000000
875360,10726.667,00000000
875370,10798.619,00000000
875380,10970.457,00000000
875390,10929.436,00000000
875400,10988.293,00000000
875410,11196.756,00000000
875420,11048.773,00000000
875430,11300.089,00000000
875440,11178.521,00000000
875450,10917.897,00000000
875460,11247.934,00000000
875470,11094.456,00000000
875480,10688.276,00000000
875490,11256.636,00000000
875500,10994.529,00000000
875510,10955.669,00000000
875520,11279.627,00000000
875530,11716.375,00000000
875540,10657.815,00000000
875550,10577.139,00000000
875560,10872.484,00000000
875570,10903.705,00000000
875580,11207.672,00000000
875590,11037.151,00000000
875600,10703.836,00000000
875610,11078.679,00000000
875620,11228.712,00000000
875630,11158.145,00000000
875640,11191.011,00000000
875650,10819.717,00000000
875660,10884.140,00000000
875670,11098.191,00000000
875680,11105.207,00000000
875690,11014.454,00000000
875700,10466.481,00000000
875710,10887.847,00000000
875720,11047.693,00000000
875730,11684.916,00000000
875740,11571.956,00000000
875750,10551.937,00000000
875760,11057.508,00000000
875770,11244.784,00000000
875780,11328.924,00000000
875790,11496.260,00000000
875800,11107.521,00000000
875810,10879.356,00000000
875820,10979.084,00000000
875830,11186.493,00000000
875840,10892.595,00000000
875850,10953.180,00000000
875860,10721.378,00000000
875870,11575.829,00000000
875880,11862.104,00000000
875890,11335.833,00000000
875900,10990.019,00000000
875910,10903.441,00000000
875920,10411.780,00000000
875930,10853.662,00000000
875940,11148.088,00000000
875950,10998.076,00000000
875960,10782.330,00000000
875970,11234.210,00000000
875980,11012.144,00000000
875990,10984.911,00000000
876000,11027.792,00000000
876010,11366.276,00000000
876020,11320.737,00000000
876030,10908.032,00000000
876040,11016.770,00000000
876050,11134.766,00000000
876060,11079.200,00000000
876070,11044.052,00000000
876080,11109.717,00000000
876090,11014.320,00000000
876100,11202.266,00000000
876110,10890.620,00000000
876120,10791.310,00000000
876130,10952.303,00000000
876140,11482.489,00000000
876150,11394.799,00000000
876160,11531.957,00000000
876170,11237.446,00000000
876180,11099.393,00000000
876190,11040.470,00000000
876200,10827.526,00000000
876210,11096.780,00000000
876220,11274.233,00000000
876230,11222.876,00000000
876240,11138.187,00000000
876250,10974.710,00000000
876260,10852.585,00000000
876270,11011.176,00000000
876280,10924.635,00000000
876290,11182.442,00000000
876300,10876.481,00000000
876310,10982.820,00000000
876320,11262.184,00000000
876330,11314.986,00000000
876340,11281.104,00000000
876350,11271.817,00000000
876360,11762.606,00000000
876370,11592.758,00000000
876380,11170.247,00000000
876390,11588.726,00000000
876400,11081.807,00000000
876410,11488.245,00000000
876420,11548.201,00000000
876430,11323.501,00000000
876440,11586.238,00000000
876450,11155.444,00000000
876460,11324.389,00000000
876470,10886.782,00000000
876480,11154.479,00000000
876490,11194.188,00000000
876500,11075.724,00000000
876510,11101.599,00000000
876520,10860.718,00000000
876530,10930.739,00000000
876540,10319.730,00000000
876550,10677.285,00000000
876560,11217.260,00000000
876570,11177.870,00000000
876580,11239.619,00000000
876590,11455.875,00000000
876600,11646.807,00000000
876610,10935.260,00000000
876620,10960.691,00000000
876630,10626.539,00000000
876640,10746.961,00000000
876650,11065.670,00000000
876660,10817.490,00000000
876670,11135.835,00000000
876680,10959.035,00000000
876690,11230.412,00000000
876700,11289.724,00000000
876710,11085.965,00000000
876720,11173.944,00000000
876730,10849.187,00000000
876740,10870.268,00000000
876750,11281.291,00000000
876760,10730.286,00000000
876770,10924.160,00000000
876780,10806.239,00000000
876790,10584.747,00000000
876800,11210.576,00000000
876810,10855.088,00000000
876820,10896.189,00000000
876830,10626.478,00000000
876840,11987.180,00000000
876850,11982.986,00000000
876860,11547.633,00000000
876870,11184.719,00000000
876880,11041.223,00000000
876890,11345.948,00000000
876900,10930.174,00000000
876910,11064.316,00000000
876920,11232.242,00000000
876930,11645.515,00000000
876940,10975.180,00000000
876950,10711.104,00000000
876960,10563.471,00000000
876970,10770.338,00000000
876980,11220.488,00000000
876990,11981.498,00000000
877000,11436.904,00000000
877010,10914.270,00000000
877020,10376.522,00000000
877030,10710.527,00000000
877040,10641.316,00000000
877050,11197.365,00000000
877060,11094.981,00000000
877070,10869.144,00000000
877080,10844.229,00000000
877090,11148.159,00000000
877100,10934.759,00000000
877110,10546.041,00000000
877120,11017.673,00000000
877130,11104.316,00000000
877140,11420.279,00000000
877150,11156.124,00000000
877160,10637.868,00000000
877170,10994.880,00000000
877180,11324.628,00000000
877190,11215.010,00000000
877200,11236.188,00000000
877210,11100.647,00000000
877220,10906.485,00000000
877230,10803.393,00000000
877240,11126.454,00000000
877250,10992.743,00000000
877260,11157.989,00000000
877270,11523.947,00000000
877280,11106.260,00000000
877290,10632.671,00000000
877300,10762.745,00000000
877310,10647.892,00000000
877320,10846.632,00000000
877330,10921.175,00000000
877340,11222.192,00000000
877350,11123.374,00000000
877360,11003.517,00000000
877370,10808.763,00000000
877380,10575.348,00000000
877390,10846.412,00000000
877400,11030.589,00000000
877410,11109.943,00000000
877420,11213.324,00000000
877430,11353.725,00000000
877440,10558.512,00000000
877450,10439.429,00000000
877460,11159.390,00000000
877470,11373.159,00000000
877480,11027.582,00000000
877490,11102.360,00000000
877500,11036.928,00000000
877510,17343.490,00000000
877520,21918.717,00000000
877530,23797.398,00000000
877540,24852.328,00000000
877550,25637.779,00000000
877560,24833.621,00000000
877570,25031.535,00000000
877580,22519.465,00000000
877590,16048.512,00000000
877600,13911.045,00000000
877610,13533.549,00000000
877620,12580.761,00000000
877630,11967.059,00000000
877640,12382.990,00000000
877650,11833.002,00000000
877660,12426.063,00000000
877670,12630.765,00000000
877680,12552.147,00000000
877690,12919.713,00000000
877700,12537.263,00000000
877710,12584.454,00000000
877720,12509.391,00000000
877730,11882.368,00000000
877740,12105.231,00000000
877750,12520.722,00000000
877760,12591.750,00000000
877770,12534.359,00000000
877780,12283.507,00000000
877790,11947.601,00000000
877800,12233.977,00000000
877810,12448.511,00000000
877820,12673.650,00000000
877830,12549.977,00000000
877840,12752.550,00000000
877850,12833.346,00000000
877860,12967.264,00000000
877870,12403.617,00000000
877880,12688.811,00000000
877890,12336.659,00000000
877900,12843.960,00000000
877910,12443.248,00000000
877920,12297.147,00000000
877930,12322.885,00000000
877940,12587.328,00000000
877950,12728.174,00000000
877960,12944.600,00000000
877970,12845.063,00000000
877980,12924.910,00000000
877990,12449.146,00000000
878000,12833.788,00000000
878010,12305.301,00000000
878020,12459.308,00000000
878030,12852.640,00000000
878040,12782.074,00000000
878050,12344.167,00000000
878060,12124.785,00000000
878070,12175.886,00000000
878080,12298.405,00000000
878090,12090.140,00000000
878100,12688.568,00000000
878110,12673.041,00000000
878120,12574.623,00000000
878130,12268.140,00000000
878140,12660.447,00000000
878150,12301.096,00000000
878160,12164.653,00000000
878170,12817.795,00000000
878180,12663.301,00000000
878190,12563.527,00000000
878200,12697.638,00000000
878210,12465.432,00000000
878220,12866.733,00000000
878230,12725.431,00000000
878240,12996.293,00000000
878250,12729.931,00000000
878260,12622.359,00000000
878270,12556.054,00000000
878280,12140.724,00000000
878290,12311.359,00000000
878300,12372.880,00000000
878310,12512.522,00000000
878320,12653.211,00000000
878330,12950.268,00000000
878340,12334.006,00000000
878350,12364.954,00000000
878360,12314.839,00000000
878370,12555.947,00000000
878380,12549.196,00000000
878390,12825.362,00000000
878400,12635.339,00000000
878410,12288.569,00000000
878420,12426.882,00000000
878430,12531.041,00000000
878440,12307.479,00000000
878450,12980.223,00000000
878460,12541.316,00000000
878470,12570.020,00000000
878480,12161.529,00000000
878490,12320.670,00000000
878500,12096.696,00000000
878510,12839.685,00000000
878520,43778.680,00000000
878530,56101.297,00000000
878540,60290.625,00000000
878550,60949.277,00000000
878560,61638.926,00000000
878570,62362.008,00000000
878580,61908.211,00000000
878590,61624.645,00000000
878600,62098.137,00000000
878610,62138.457,00000000
878620,62072.516,00000000
878630,62063.891,00000000
878640,62171.570,00000000
878650,62034.594,00000000
878660,62481.641,00000000
878670,63010.281,00000000
878680,62698.125,00000000
878690,61949.453,00000000
878700,61784.469,00000000
878710,62439.664,00000000
878720,62725.188,00000000
878730,62036.879,00000000
878740,62781.137,00000000
878750,62838.086,00000000
878760,62345.945,00000000
878770,62142.613,00000000
878780,61502.426,00000000
878790,62603.047,00000000
878800,62103.816,00000000
878810,62073.426,00000000
878820,62183.090,00000000
878830,61736.254,00000000
878840,62305.273,00000000
878850,61474.160,00000000
878860,62083.598,00000000
878870,62434.258,00000000
878880,62473.520,00000000
878890,62458.332,00000000
878900,62395.324,00000000
878910,62195.766,00000000
878920,62153.820,00000000
878930,63001.406,00000000
878940,62212.543,00000000
878950,62536.309,00000000
878960,62424.406,00000000
878970,62560.352,00000000
878980,62188.230,00000000
878990,62488.453,00000000
879000,62376.348,00000000
879010,63662.430,00000000
879020,64180.227,00000000
879030,62765.977,00000000
879040,62870.879,00000000
879050,62376.281,00000000
879060,61995.633,00000000
879070,62006.180,00000000
879080,61875.254,00000000
879090,62044.516,00000000
879100,61963.121,00000000
879110,61540.996,00000000
879120,61855.984,00000000
879130,61982.113,00000000
879140,62565.902,00000000
879150,62838.441,00000000
879160,62581.121,00000000
879170,62345.262,00000000
879180,62180.086,00000000
879190,62134.359,00000000
879200,62383.172,00000000
879210,63405.566,00000000
879220,62769.457,00000000
879230,62674.234,00000000
879240,62639.258,00000000
879250,62366.730,00000000
879260,61942.715,00000000
879270,62174.668,00000000
879280,61916.945,00000000
879290,62477.801,00000000
879300,62243.070,00000000
879310,61925.707,00000000
879320,61529.961,00000000
879330,61386.652,00000000
879340,61777.371,00000000
879350,62034.867,00000000
879360,62361.059,00000000
879370,62836.395,00000000
879380,62230.676,00000000
879390,62789.445,00000000
879400,62290.867,00000000
879410,62272.594,00000000
879420,62378.035,00000000
879430,62981.023,00000000
879440,62886.652,00000000
879450,62512.145,00000000
879460,62261.328,00000000
879470,62583.809,00000000
879480,61878.902,00000000
879490,61758.699,00000000
879500,62364.957,00000000
879510,62564.152,00000000
879520,62723.828,00000000
879530,62550.035,00000000
879540,62388.816,00000000
879550,61738.410,00000000
879560,63238.789,00000000
879570,63459.297,00000000
879580,62659.137,00000000
879590,62353.398,00000000
879600,62575.871,00000000
879610,62491.563,00000000
879620,61671.328,00000000
879630,62176.227,00000000
879640,62744.609,00000000
879650,62444.004,00000000
879660,62678.238,00000000
879670,62683.777,00000000
879680,62758.863,00000000
879690,62208.402,00000000
879700,62623.516,00000000
879710,62503.992,00000000
879720,62359.313,00000000
879730,62037.758,00000000
879740,62397.836,00000000
879750,62195.219,00000000
879760,62645.348,00000000
879770,63318.672,00000000
879780,62869.930,00000000
879790,62715.652,00000000
879800,62649.262,00000000
879810,62439.895,00000000
879820,62439.543,00000000
879830,62269.746,00000000
879840,62101.766,00000000
879850,62493.793,00000000
879860,62766.906,00000000
879870,63301.676,00000000
879880,62461.977,00000000
879890,62544.352,00000000
879900,62628.699,00000000
879910,61511.082,00000000
879920,63001.668,00000000
879930,62214.246,00000000
879940,62105.434,00000000
879950,62127.727,00000000
879960,61928.773,00000000
879970,62075.797,00000000
879980,63294.957,00000000
879990,63015.797,00000000
880000,62777.047,00000000
880010,62329.508,00000000
880020,63187.766,00000000
880030,62417.621,00000000
880040,62207.930,00000000
880050,62478.438,00000000
880060,62755.563,00000000
880070,62697.594,00000000
880080,62196.063,00000000
880090,62071.094,00000000
880100,61880.281,00000000
880110,62541.941,00000000
880120,62816.359,00000000
880130,62966.043,00000000
880140,62236.156,00000000
880150,62526.418,00000000
880160,62365.637,00000000
880170,62274.859,00000000
880180,62710.379,00000000
880190,62249.352,00000000
880200,62608.785,00000000
880210,63017.918,00000000
880220,62885.797,00000000
880230,62417.016,00000000
880240,62024.484,00000000
880250,62382.105,00000000
880260,62471.160,00000000
880270,62638.648,00000000
880280,62817.504,00000000
880290,62649.523,00000000
880300,62520.102,00000000
880310,62653.375,00000000
880320,62601.598,00000000
880330,63712.781,00000000
880340,63142.809,00000000
880350,63278.125,00000000
880360,63264.172,00000000
880370,62385.926,00000000
880380,62574.508,00000000
880390,62037.027,00000000
880400,62725.801,00000000
880410,63495.258,00000000
880420,63221.949,00000000
880430,63039.258,00000000
880440,62401.082,00000000
880450,62668.164,00000000
880460,61526.324,00000000
880470,62651.445,00000000
880480,62232.410,00000000
880490,63253.836,00000000
880500,62833.363,00000000
880510,62280.227,00000000
880520,62908.164,00000000
880530,62370.320,00000000
880540,62284.746,00000000
880550,62297.617,00000000
880560,62943.973,00000000
880570,62875.828,00000000
880580,62161.004,00000000
880590,62547.461,00000000
880600,62113.930,00000000
880610,62950.027,00000000
880620,62654.906,00000000
880630,62228.801,00000000
880640,62422.180,00000000
880650,55849.098,00000000
880660,27338.344,00000000
880670,16682.754,00000000
880680,12821.671,00000000
880690,11793.676,00000000
880700,11747.087,00000000
880710,11046.441,00000000
880720,10664.362,00000000
880730,10023.372,00000000
880740,10209.642,00000000
880750,10872.459,00000000
880760,11287.241,00000000
880770,11156.790,00000000
880780,10752.771,00000000
880790,10317.817,00000000
880800,10471.307,00000000
880810,10432.826,00000000
880820,10852.920,00000000
880830,11064.645,00000000
880840,10512.589,00000000
880850,10820.523,00000000
880860,10697.079,00000000
880870,10972.727,00000000
880880,10875.074,00000000
880890,10503.854,00000000
880900,11001.260,00000000
880910,10910.697,00000000
880920,10775.256,00000000
880930,11048.782,00000000
880940,11169.765,00000000
880950,11050.638,00000000
880960,11267.946,00000000
880970,11054.992,00000000
880980,10950.169,00000000
880990,10893.414,00000000
881000,11089.146,00000000
881010,11059.552,00000000
881020,10557.819,00000000
881030,11398.406,00000000
881040,11509.874,00000000
881050,10830.335,00000000
881060,11217.263,00000000
881070,10600.663,00000000
881080,10680.809,00000000
881090,10742.113,00000000
881100,11101.354,00000000
881110,10803.232,00000000
881120,10946.853,00000000
881130,10931.432,00000000
881140,10889.202,00000000
881150,11064.115,00000000
881160,10541.251,00000000
881170,10470.998,00000000
881180,10647.989,00000000
881190,11109.018,00000000
881200,11081.827,00000000
881210,10547.781,00000000
881220,10529.220,00000000
881230,10343.988,00000000
881240,11450.890,00000000
881250,11181.202,00000000
881260,11017.983,00000000
881270,10759.500,00000000
881280,10984.030,00000000
881290,10819.630,00000000
881300,10970.632,00000000
881310,10647.870,00000000
881320,10905.373,00000000
881330,10759.896,00000000
881340,11189.601,00000000
881350,11115.487,00000000
881360,10778.305,00000000
881370,10770.721,00000000
881380,10671.986,00000000
881390,11397.693,00000000
881400,11391.761,00000000
881410,10948.432,00000000
881420,10685.816,00000000
881430,10547.593,00000000
881440,10889.684,00000000
881450,11098.141,00000000
881460,10998.218,00000000
881470,11264.201,00000000
881480,10740.915,00000000
881490,11091.698,00000000
881500,11051.801,00000000
881510,10917.800,00000000
881520,10795.530,00000000
881530,10964.168,00000000
881540,10902.513,00000000
881550,11001.400,00000000
881560,10841.798,00000000
881570,10408.260,00000000
881580,10682.406,00000000
881590,10984.004,00000000
881600,10721.975,00000000
881610,11046.964,00000000
881620,10903.094,00000000
881630,10961.109,00000000
881640,11198.530,00000000
881650,10615.522,00000000
881660,10885.244,00000000
881670,11119.936,00000000
881680,11511.394,00000000
881690,11504.043,00000000
881700,11079.564,00000000
881710,11041.564,00000000
881720,11309.136,00000000
881730,11246.125,00000000
881740,11078.156,00000000
881750,10637.410,00000000
881760,11057.085,00000000
881770,10982.902,00000000
881780,11159.542,00000000
881790,10843.816,00000000
881800,11181.952,00000000
881810,11018.555,00000000
881820,10944.827,00000000
881830,10970.272,00000000
881840,10557.720,00000000
881850,10763.358,00000000
881860,11186.712,00000000
881870,10595.283,00000000
881880,10987.270,00000000
881890,10902.161,00000000
881900,10721.042,00000000
881910,10634.983,00000000
881920,11311.273,00000000
881930,11506.036,00000000
881940,11085.039,00000000
881950,11467.698,00000000
881960,10950.592,00000000
881970,10274.979,00000000
881980,10674.842,00000000
881990,10619.918,00000000
882000,10399.967,00000000
882010,10947.668,00000000
882020,11357.129,00000000
882030,11689.188,00000000
882040,11433.068,00000000
882050,10857.202,00000000
882060,10600.212,00000000
882070,11414.672,00000000
882080,11166.968,00000000
882090,11463.190,00000000
882100,10497.835,00000000
882110,11277.711,00000000
882120,11064.263,00000000
882130,10995.566,00000000
882140,11019.154,00000000
882150,10934.475,00000000
882160,11325.760,00000000
882170,11426.724,00000000
882180,11097.297,00000000
882190,10896.034,00000000
882200,10740.088,00000000
882210,10501.552,00000000
882220,10848.182,00000000
882230,10781.330,00000000
882240,11215.238,00000000
882250,10704.767,00000000
882260,10887.930,00000000
882270,11254.966,00000000
882280,11233.173,00000000
882290,11098.373,00000000
882300,11451.347,00000000
882310,10785.386,00000000
882320,11492.923,00000000
882330,10676.345,00000000
882340,10483.441,00000000
882350,10942.123,00000000
882360,11367.838,00000000
882370,11146.044,00000000
882380,10754.489,00000000
882390,11180.044,00000000
882400,11040.420,00000000
882410,10629.261,00000000
882420,10851.574,00000000
882430,11018.555,00000000
882440,11158.791,00000000
882450,11210.031,00000000
882460,10927.791,00000000
882470,10657.942,00000000
882480,10605.945,00000000
882490,10664.246,00000000
882500,10970.641,00000000
882510,11733.549,00000000
882520,11174.373,00000000
882530,10718.447,00000000
882540,10628.154,00000000
882550,10611.818,00000000
882560,10857.765,00000000
882570,10925.178,00000000
882580,11002.198,00000000
882590,11030.995,00000000
882600,10931.145,00000000
882610,11446.834,00000000
882620,10962.148,00000000
882630,10666.373,00000000
882640,10900.573,00000000
882650,11362.230,00000000
882660,10920.921,00000000
882670,11221.558,00000000
882680,11073.373,00000000
882690,10899.857,00000000
882700,11814.942,00000000
882710,11606.828,00000000
882720,11079.402,00000000
882730,10996.973,00000000
882740,11042.110,00000000
882750,11079.987,00000000
882760,11046.764,00000000
882770,10907.925,00000000
882780,11352.853,00000000
882790,11335.423,00000000
882800,11650.198,00000000
882810,11386.823,00000000
882820,10675.502,00000000
882830,10686.799,00000000
882840,10873.422,00000000
882850,11365.036,00000000
882860,11373.294,00000000
882870,11515.492,00000000
882880,11517.788,00000000
882890,11207.656,00000000
882900,11373.870,00000000
882910,10749.735,00000000
882920,10643.376,00000000
882930,10909.777,00000000
882940,10960.709,00000000
882950,11011.720,00000000
882960,10846.803,00000000
882970,11344.419,00000000
882980,11066.540,00000000
882990,11253.468,00000000
883000,11561.200,00000000
883010,11248.364,00000000
883020,11033.658,00000000
883030,11040.080,00000000
883040,10645.072,00000000
883050,11364.547,00000000
883060,11123.918,00000000
883070,10884.586,00000000
883080,11365.878,00000000
883090,11034.982,00000000
883100,11098.710,00000000
883110,11117.388,00000000
883120,11151.722,00000000
883130,10914.000,00000000
883140,11166.485,00000000
883150,11253.423,00000000
883160,10789.694,00000000
883170,10738.881,00000000
883180,11082.578,00000000
883190,11008.614,00000000
883200,11647.261,00000000
883210,11442.393,00000000
883220,11544.377,00000000
883230,10671.231,00000000
883240,10651.238,00000000
883250,11215.484,00000000
883260,10960.872,00000000
883270,11906.895,00000000
883280,11298.188,00000000
883290,11390.728,00000000
883300,11285.746,00000000
883310,10783.625,00000000
883320,10771.512,00000000
883330,11197.121,00000000
883340,10607.666,00000000
883350,10993.111,00000000
883360,11091.775,00000000
883370,11180.442,00000000
883380,10757.728,00000000
883390,10826.207,00000000
883400,10726.143,00000000
883410,10978.291,00000000
883420,11512.723,00000000
883430,11065.083,00000000
883440,10704.959,00000000
883450,11101.404,00000000
883460,11222.331,00000000
883470,10985.234,00000000
883480,11245.320,00000000
883490,11405.001,00000000
883500,11556.013,00000000
883510,10767.946,00000000
883520,11060.859,00000000
883530,11114.732,00000000
883540,10915.389,00000000
883550,10754.212,00000000
883560,10882.818,00000000
883570,10917.630,00000000
883580,10927.101,00000000
883590,11019.472,00000000
883600,10798.105,00000000
883610,11258.995,00000000
883620,10967.793,00000000
883630,11195.980,00000000
883640,11209.656,00000000
883650,11261.929,00000000
883660,11030.637,00000000
883670,11037.702,00000000
883680,11150.926,00000000
883690,11421.930,00000000
883700,10972.705,00000000
883710,11059.512,00000000
883720,10820.507,00000000
883730,10441.159,00000000
883740,11234.591,00000000
883750,10854.295,00000000
883760,11167.027,00000000
883770,11080.714,00000000
883780,11034.389,00000000
883790,10802.993,00000000
883800,11110.349,00000000
883810,11160.502,00000000
883820,10507.554,00000000
883830,10929.334,00000000
883840,11142.104,00000000
883850,11395.895,00000000
883860,10840.089,00000000
883870,10680.962,00000000
883880,10668.296,00000000
883890,11016.193,00000000
883900,11068.078,00000000
883910,11073.819,00000000
883920,10958.125,00000000
883930,10787.557,00000000
883940,11255.952,00000000
883950,11053.739,00000000
883960,10782.095,00000000
883970,10934.597,00000000
883980,11105.036,00000000
883990,11307.662,00000000
884000,10787.550,00000000
884010,11107.643,00000000
884020,10918.601,00000000
884030,11463.087,00000000
884040,11402.199,00000000
884050,11142.729,00000000
884060,11518.714,00000000
884070,10980.546,00000000
884080,11380.084,00000000
884090,10829.230,00000000
884100,10921.769,00000000
884110,11352.032,00000000
884120,11242.617,00000000
884130,11624.004,00000000
884140,11116.966,00000000
884150,10992.884,00000000
884160,10646.363,00000000
884170,10950.980,00000000
884180,11250.379,00000000
884190,11581.101,00000000
884200,11480.872,00000000
884210,11289.519,00000000
884220,11221.325,00000000
884230,11468.021,00000000
884240,11820.331,00000000
884250,11199.930,00000000
884260,11325.923,00000000
884270,11090.536,00000000
884280,11720.089,00000000
884290,11449.389,00000000
884300,11357.676,00000000
884310,10927.395,00000000
884320,11100.014,00000000
884330,11604.970,00000000
884340,10753.764,00000000
884350,10578.034,00000000
884360,10631.930,00000000
884370,11019.729,00000000
884380,10864.889,00000000
884390,10768.124,00000000
884400,11014.630,00000000
884410,10782.605,00000000
884420,10754.168,00000000
884430,11066.460,00000000
884440,11025.759,00000000
884450,11148.979,00000000
884460,10955.402,00000000
884470,10941.259,00000000
884480,11828.522,00000000
884490,11357.442,00000000
884500,11125.713,00000000
884510,11553.118,00000000
884520,10825.551,00000000
884530,11101.046,00000000
884540,11074.132,00000000
884550,10762.846,00000000
884560,10952.603,00000000
884570,10910.631,00000000
884580,10821.066,00000000
884590,11220.251,00000000
884600,11469.282,00000000
884610,11327.688,00000000
884620,10776.104,00000000
884630,11191.209,00000000
884640,11000.854,00000000
884650,10770.743,00000000
884660,10663.864,00000000
884670,11182.215,00000000
884680,11504.739,00000000
884690,11002.148,00000000
884700,10290.604,00000000
884710,11129.311,00000000
884720,10940.344,00000000
884730,11551.235,00000000
884740,11742.412,00000000
884750,11209.563,00000000
884760,10997.407,00000000
884770,10917.406,00000000
884780,10393.180,00000000
884790,10727.059,00000000
884800,10475.775,00000000
884810,10889.502,00000000
884820,11282.374,00000000
884830,11116.908,00000000
884840,10796.795,00000000
884850,10681.094,00000000
884860,11140.344,00000000
884870,11032.323,00000000
884880,11459.655,00000000
884890,11556.769,00000000
884900,10881.030,00000000
884910,11000.743,00000000
884920,11077.623,00000000
884930,10780.761,00000000
884940,10771.545,00000000
884950,11345.755,00000000
884960,11238.803,00000000
884970,11216.175,00000000
884980,10751.693,00000000
884990,10554.152,00000000
885000,11119.176,00000000
885010,10738.658,00000000
885020,11046.179,00000000
885030,10994.075,00000000
885040,10351.895,00000000
885050,10713.112,00000000
885060,10884.417,00000000
885070,11018.160,00000000
885080,10762.425,00000000
885090,10886.852,00000000
885100,10890.198,00000000
885110,10802.993,00000000
885120,11096.660,00000000
885130,10855.000,00000000
885140,10765.679,00000000
885150,11019.295,00000000
885160,11504.133,00000000
885170,11084.860,00000000
885180,10675.732,00000000
885190,10485.530,00000000
885200,10487.379,00000000
885210,10714.455,00000000
885220,10633.325,00000000
885230,10749.646,00000000
885240,11263.771,00000000
885250,10788.828,00000000
885260,11051.701,00000000
885270,10986.504,00000000
885280,10758.999,00000000
885290,11034.036,00000000
885300,10933.609,00000000
885310,11067.882,00000000
885320,10716.836,00000000
885330,10656.293,00000000
885340,10982.296,00000000
885350,11056.820,00000000
885360,11138.843,00000000
885370,11458.826,00000000
885380,11123.887,00000000
885390,10748.037,00000000
885400,10639.691,00000000
885410,10669.292,00000000
885420,10809.500,00000000
885430,11041.328,00000000
885440,11141.439,00000000
885450,11387.203,00000000
885460,11096.602,00000000
885470,10800.519,00000000
885480,10449.728,00000000
885490,10472.867,00000000
885500,11342.368,00000000
885510,11366.067,00000000
885520,10772.610,00000000
885530,10979.276,00000000
885540,10960.304,00000000
885550,10980.262,00000000
885560,10656.915,00000000
885570,11254.135,00000000
885580,11391.728,00000000
885590,11166.919,00000000
885600,11124.984,00000000
885610,10713.109,00000000
885620,10689.796,00000000
885630,10740.294,00000000
885640,11013.144,00000000
885650,16957.469,00000000
885660,22536.672,00000000
885670,23570.086,00000000
885680,24319.844,00000000
885690,23632.855,00000000
885700,24522.494,00000000
885710,24647.592,00000000
885720,22905.766,00000000
885730,16784.742,00000000
885740,14315.119,00000000
885750,13262.485,00000000
885760,12666.959,00000000
885770,12720.886,00000000
885780,12934.399,00000000
885790,13090.660,00000000
885800,12597.358,00000000
885810,12837.336,00000000
885820,12201.143,00000000
885830,12328.141,00000000
885840,12683.770,00000000
885850,12428.674,00000000
885860,12700.616,00000000
885870,12534.000,00000000
885880,12437.873,00000000
885890,13102.391,00000000
885900,12576.655,00000000
885910,11993.481,00000000
885920,12521.161,00000000
885930,12166.661,00000000
885940,12500.157,00000000
885950,12543.159,00000000
885960,12613.608,00000000
885970,13008.086,00000000
885980,12295.744,00000000
885990,12706.665,00000000
886000,12306.252,00000000
886010,12581.443,00000000
886020,12641.087,00000000
886030,12372.069,00000000
886040,12434.908,00000000
886050,12344.831,00000000
886060,12427.414,00000000
886070,12418.652,00000000
886080,12059.755,00000000
886090,12442.318,00000000
886100,12199.124,00000000
886110,12311.916,00000000
886120,12340.455,00000000
886130,12872.138,00000000
886140,13025.375,00000000
886150,12723.239,00000000
886160,12445.032,00000000
886170,12589.684,00000000
886180,12603.710,00000000
886190,12416.129,00000000
886200,12859.801,00000000
886210,12871.609,00000000
886220,12468.926,00000000
886230,12334.437,00000000
886240,12607.663,00000000
886250,12221.175,00000000
886260,11898.114,00000000
886270,12043.295,00000000
886280,12799.027,00000000
886290,13036.515,00000000
886300,12055.375,00000000
886310,12196.485,00000000
886320,12346.253,00000000
886330,12698.464,00000000
886340,12449.939,00000000
886350,12484.259,00000000
886360,12798.841,00000000
886370,12816.279,00000000
886380,12879.608,00000000
886390,12644.796,00000000
886400,12348.521,00000000
886410,12149.813,00000000
886420,12668.604,00000000
886430,12966.699,00000000
886440,12631.105,00000000
886450,12584.537,00000000
886460,12400.804,00000000
886470,12455.014,00000000
886480,12316.823,00000000
886490,12683.189,00000000
886500,12742.879,00000000
886510,12423.908,00000000
886520,12505.011,00000000
886530,12317.055,00000000
886540,12383.951,00000000
886550,12503.989,00000000
886560,12385.795,00000000
886570,12882.185,00000000
886580,12882.456,00000000
886590,13148.406,00000000
886600,12820.460,00000000
886610,12075.378,00000000
886620,12417.240,00000000
886630,12668.373,00000000
886640,12701.828,00000000
886650,12813.837,00000000
886660,41639.898,00000000
886670,54631.016,00000000
886680,59167.293,00000000
886690,61003.578,00000000
886700,62089.297,00000000
886710,62439.047,00000000
886720,62372.125,00000000
886730,62562.227,00000000
886740,62788.223,00000000
886750,63151.379,00000000
886760,62456.430,00000000
886770,62578.234,00000000
886780,62998.867,00000000
886790,62245.027,00000000
886800,62194.238,00000000
886810,62465.715,00000000
886820,62183.813,00000000
886830,63081.945,00000000
886840,63288.180,00000000
886850,63539.973,00000000
886860,62996.012,00000000
886870,62163.531,00000000
886880,61807.836,00000000
886890,62325.629,00000000
886900,63283.531,00000000
886910,62889.969,00000000
886920,62708.426,00000000
886930,62951.777,00000000
886940,62177.926,00000000
886950,62444.035,00000000
886960,61785.879,00000000
886970,62319.477,00000000
886980,63615.840,00000000
886990,62268.125,00000000
887000,62144.633,00000000
887010,62228.012,00000000
887020,62101.773,00000000
887030,61978.070,00000000
887040,62800.430,00000000
887050,62827.375,00000000
887060,62415.855,00000000
887070,61401.789,00000000
887080,61629.883,00000000
887090,61815.281,00000000
887100,61439.387,00000000
887110,62972.918,00000000
887120,62668.902,00000000
887130,62169.008,00000000
887140,62077.438,00000000
887150,62902.836,00000000
887160,63142.871,00000000
887170,62683.574,00000000
887180,62024.934,00000000
887190,63156.637,00000000
887200,62587.590,00000000
887210,62377.293,00000000
887220,62088.840,00000000
887230,62296.652,00000000
887240,61860.707,00000000
887250,62499.648,00000000
887260,62683.527,00000000
887270,62352.629,00000000
887280,62097.766,00000000
887290,62542.727,00000000
887300,62687.797,00000000
887310,62301.914,00000000
887320,63119.453,00000000
887330,63731.086,00000000
887340,62635.672,00000000
887350,62282.824,00000000
887360,61785.957,00000000
887370,61736.867,00000000
887380,61919.250,00000000
887390,62472.121,00000000
887400,62677.746,00000000
887410,62967.984,00000000
887420,62581.805,00000000
887430,62503.430,00000000
887440,61939.063,00000000
887450,62162.543,00000000
887460,62160.051,00000000
887470,62614.813,00000000
887480,62861.273,00000000
887490,63328.504,00000000
887500,62273.207,00000000
887510,62824.371,00000000
887520,62317.367,00000000
887530,62235.613,00000000
887540,62793.227,00000000
887550,62508.324,00000000
887560,62832.934,00000000
887570,62599.469,00000000
887580,62387.516,00000000
887590,62355.563,00000000
887600,62778.207,00000000
887610,62619.109,00000000
887620,63118.699,00000000
887630,61857.523,00000000
887640,62096.668,00000000
887650,61883.559,00000000
887660,61977.250,00000000
887670,62844.563,00000000
887680,62872.898,00000000
887690,62866.914,00000000
887700,62339.422,00000000
887710,61742.738,00000000
887720,62012.387,00000000
887730,61864.840,00000000
887740,63278.445,00000000
887750,62814.707,00000000
887760,62197.633,00000000
887770,63023.262,00000000
887780,62083.125,00000000
887790,63114.734,00000000
887800,62864.805,00000000
887810,63074.730,00000000
887820,62690.859,00000000
887830,62546.867,00000000
887840,63150.703,00000000
887850,62227.578,00000000
887860,62670.656,00000000
887870,63037.926,00000000
887880,63409.395,00000000
887890,63106.051,00000000
887900,62656.980,00000000
887910,62351.371,00000000
887920,63005.207,00000000
887930,62705.602,00000000
887940,61527.027,00000000
887950,62609.461,00000000
887960,62058.363,00000000
887970,63054.266,00000000
887980,62654.859,00000000
887990,62399.602,00000000
888000,61777.375,00000000
888010,61305.930,00000000
888020,62514.316,00000000
888030,62521.840,00000000
888040,62859.695,00000000
888050,62804.664,00000000
888060,61923.871,00000000
888070,62235.973,00000000
888080,62361.914,00000000
888090,62394.832,00000000
888100,62159.777,00000000
888110,61798.031,00000000
888120,62619.820,00000000
888130,62637.594,00000000
888140,63035.918,00000000
888150,62145.523,00000000
888160,61832.000,00000000
888170,62438.410,00000000
888180,63213.125,00000000
888190,62239.121,00000000
888200,62413.543,00000000
888210,63568.797,00000000
888220,62718.027,00000000
888230,62259.941,00000000
888240,62958.273,00000000
888250,63441.621,00000000
888260,62805.734,00000000
888270,62282.199,00000000
888280,62222.152,00000000
888290,62355.402,00000000
888300,62844.801,00000000
888310,61983.652,00000000
888320,62925.684,00000000
888330,62469.320,00000000
888340,62598.516,00000000
888350,61699.234,00000000
888360,61540.574,00000000
888370,62768.141,00000000
888380,62814.922,00000000
888390,62231.652,00000000
888400,62705.004,00000000
888410,62864.227,00000000
888420,62658.828,00000000
888430,62469.879,00000000
888440,62954.004,00000000
888450,62607.730,00000000
888460,62762.953,00000000
888470,62827.156,00000000
888480,62610.773,00000000
888490,63128.484,00000000
888500,62720.609,00000000
888510,63027.480,00000000
888520,63087.488,00000000
888530,63953.223,00000000
888540,62957.414,00000000
888550,62611.875,00000000
888560,62436.660,00000000
888570,62930.391,00000000
888580,63141.141,00000000
888590,63155.402,00000000
888600,63002.590,00000000
888610,62900.855,00000000
888620,62622.563,00000000
888630,62272.543,00000000
888640,62310.012,00000000
888650,62576.125,00000000
888660,63582.559,00000000
888670,63144.352,00000000
888680,62479.859,00000000
888690,61839.762,00000000
888700,62022.273,00000000
888710,62162.469,00000000
888720,62960.574,00000000
888730,63068.699,00000000
888740,62532.363,00000000
888750,62827.574,00000000
888760,62587.156,00000000
888770,62150.488,00000000
888780,62337.227,00000000
888790,60032.578,00000000
888800,29436.639,00000000
888810,17808.912,00000000
888820,13569.866,00000000
888830,11645.756,00000000
888840,10840.892,00000000
888850,11416.788,00000000
888860,10840.297,00000000
888870,10757.112,00000000
888880,11265.797,00000000
888890,11038.109,00000000
888900,10840.423,00000000
888910,10921.370,00000000
888920,10831.215,00000000
888930,11405.318,00000000
888940,11017.633,00000000
888950,11449.439,00000000
888960,11019.668,00000000
888970,10832.154,00000000
888980,10573.104,00000000
888990,10484.453,00000000
889000,11342.559,00000000
889010,11250.002,00000000
889020,11151.155,00000000
889030,10302.665,00000000
889040,10700.132,00000000
889050,10657.315,00000000
889060,10413.414,00000000
889070,10799.064,00000000
889080,11035.766,00000000
889090,10804.338,00000000
889100,11145.852,00000000
889110,11263.137,00000000
889120,10992.827,00000000
889130,10632.474,00000000
889140,10828.464,00000000
889150,11619.966,00000000
889160,11043.742,00000000
889170,10944.008,00000000
889180,10448.539,00000000
889190,10546.534,00000000
889200,10655.823,00000000
889210,10915.505,00000000
889220,10888.742,00000000
889230,10528.738,00000000
889240,10800.348,00000000
889250,10692.098,00000000
889260,10877.387,00000000
889270,10496.977,00000000
889280,10592.264,00000000
889290,11030.746,00000000
889300,11160.380,00000000
889310,10719.249,00000000
889320,11089.760,00000000
889330,10592.493,00000000
889340,11417.835,00000000
889350,14887.775,00000000
889360,15805.059,00000000
889370,13925.513,00000000
889380,12687.082,00000000
889390,14393.273,00000000
889400,15398.363,00000000
889410,15532.271,00000000
889420,16014.085,00000000
889430,16328.385,00000000
889440,16026.608,00000000
889450,15934.625,00000000
889460,15743.363,00000000
889470,15620.582,00000000
889480,15786.436,00000000
889490,16112.405,00000000
889500,16134.638,00000000
889510,16276.374,00000000
889520,15559.250,00000000
889530,15970.979,00000000
889540,15573.681,00000000
889550,15935.235,00000000
889560,15886.166,00000000
889570,15858.490,00000000
889580,16217.279,00000000
889590,15228.157,00000000
889600,15763.921,00000000
889610,15820.958,00000000
889620,15640.096,00000000
889630,16022.131,00000000
889640,15923.707,00000000
889650,15775.263,00000000
889660,15851.460,00000000
889670,15575.030,00000000
889680,16286.543,00000000
889690,15710.809,00000000
889700,16098.386,00000000
889710,16094.941,00000000
889720,16502.797,00000000
889730,16151.074,00000000
889740,17867.328,00000000
889750,29473.240,00000000
889760,45032.836,00000000
889770,60909.230,00000000
889780,73339.414,00000000
889790,82541.484,00000000
889800,88383.273,00000000
889810,92051.945,00000000
889820,94342.578,00000000
889830,95789.430,00000000
889840,96153.148,00000000
889850,95746.328,00000000
889860,95858.977,00000000
889870,94658.688,00000000
889880,93919.156,00000000
889890,93298.664,00000000
889900,92225.008,00000000
889910,91285.289,00000000
889920,90807.227,00000000
889930,90148.773,00000000
889940,88301.086,00000000
889950,87234.977,00000000
889960,86014.594,00000000
889970,85015.938,00000000
889980,85077.625,00000000
889990,84230.922,00000000
890000,83345.102,00000000
890010,82659.320,00000000
890020,81820.922,00000000
890030,82071.883,00000000
890040,81338.703,00000000
890050,81897.242,00000000
890060,81366.656,00000000
890070,81235.063,00000000
890080,80252.961,00000000
890090,79932.289,00000000
890100,80074.336,00000000
890110,79649.164,00000000
890120,79839.828,00000000
890130,79668.500,00000000
890140,45180.773,00000000
890150,26889.850,00000000
890160,20041.432,00000000
890170,17083.230,00000000
890180,16328.855,00000000
890190,16169.772,00000000
890200,15840.560,00000000
890210,16266.489,00000000
890220,16094.217,00000000
890230,15687.706,00000000
890240,15890.991,00000000
890250,15919.337,00000000
890260,15705.596,00000000
890270,15789.643,00000000
890280,16232.674,00000000
890290,16081.348,00000000
890300,15752.813,00000000
890310,15583.037,00000000
890320,16044.234,00000000
890330,15907.118,00000000
890340,15908.429,00000000
890350,15944.867,00000000
890360,15919.861,00000000
890370,15800.704,00000000
890380,16116.639,00000000
890390,15383.017,00000000
890400,12705.228,00000000
890410,11691.853,00000000
890420,11662.034,00000000
890430,11559.389,00000000
890440,11004.354,00000000
890450,10934.643,00000000
890460,10779.974,00000000
890470,11013.263,00000000
890480,11327.497,00000000
890490,11182.538,00000000
890500,10569.010,00000000
890510,10870.197,00000000
890520,10340.497,00000000
890530,10798.873,00000000
890540,10754.039,00000000
890550,10854.026,00000000
890560,11040.208,00000000
890570,10914.753,00000000
890580,10931.151,00000000
890590,11060.620,00000000
890600,10888.655,00000000
890610,11538.977,00000000
890620,11499.620,00000000
890630,11100.477,00000000
890640,11065.776,00000000
890650,10407.716,00000000
890660,10508.395,00000000
890670,10565.950,00000000
890680,11051.479,00000000
890690,11080.033,00000000
890700,11460.590,00000000
890710,10938.685,00000000
890720,10620.447,00000000
890730,10921.567,00000000
890740,11721.121,00000000
890750,10976.717,00000000
890760,11391.700,00000000
890770,11048.021,00000000
890780,11266.305,00000000
890790,11307.634,00000000
890800,10924.399,00000000
890810,10571.386,00000000
890820,10951.814,00000000
890830,11536.584,00000000
890840,11472.602,00000000
890850,11207.754,00000000
890860,11221.247,00000000
890870,10745.668,00000000
890880,11542.653,00000000
890890,11682.477,00000000
890900,11132.232,00000000
890910,11048.460,00000000
890920,10993.628,00000000
890930,11242.661,00000000
890940,10852.913,00000000
890950,11520.568,00000000
890960,11492.440,00000000
890970,11431.372,00000000
890980,11471.255,00000000
890990,11240.900,00000000
891000,10923.430,00000000
891010,11005.031,00000000
891020,10723.529,00000000
891030,10741.479,00000000
891040,10956.688,00000000
891050,11609.828,00000000
891060,11526.107,00000000
891070,11450.864,00000000
891080,11394.106,00000000
891090,11608.091,00000000
891100,11348.951,00000000
891110,11063.123,00000000
891120,11178.928,00000000
891130,11380.395,00000000
891140,11103.676,00000000
891150,11085.326,00000000
891160,11180.691,00000000
891170,11361.316,00000000
891180,11438.894,00000000
891190,11632.229,00000000
891200,11188.690,00000000
891210,11172.013,00000000
891220,11405.514,00000000
891230,10856.287,00000000
891240,11050.993,00000000
891250,11346.029,00000000
891260,11593.459,00000000
891270,10698.089,00000000
891280,10831.398,00000000
891290,11315.735,00000000
891300,11072.684,00000000
891310,11625.839,00000000
891320,11080.197,00000000
891330,11117.218,00000000
891340,10951.608,00000000
891350,10983.879,00000000
891360,11433.857,00000000
891370,10842.127,00000000
891380,11380.635,00000000
891390,11341.265,00000000
891400,11172.228,00000000
891410,11408.173,00000000
891420,10711.245,00000000
891430,11185.941,00000000
891440,10965.566,00000000
891450,11038.313,00000000
891460,11480.420,00000000
891470,11176.926,00000000
891480,11443.607,00000000
891490,11525.106,00000000
891500,11434.901,00000000
891510,10997.123,00000000
891520,11204.933,00000000
891530,11881.431,00000000
891540,11383.486,00000000
891550,11004.063,00000000
891560,10875.417,00000000
891570,10880.363,00000000
891580,11099.554,00000000
891590,11902.987,00000000
891600,13040.875,00000000
891610,12924.937,00000000
891620,13189.841,00000000
891630,12660.315,00000000
891640,11920.714,00000000
891650,11783.655,00000000
891660,11741.264,00000000
891670,12021.273,00000000
891680,11864.044,00000000
891690,11293.265,00000000
891700,11245.691,00000000
891710,11436.520,00000000
891720,11272.413,00000000
891730,11529.662,00000000
891740,11566.869,00000000
891750,11569.186,00000000
891760,11229.347,00000000
891770,11003.548,00000000
891780,11690.988,00000000
891790,11176.450,00000000
891800,11524.344,00000000
891810,11459.586,00000000
891820,10884.822,00000000
891830,11156.788,00000000
891840,11135.735,00000000
891850,11149.934,00000000
891860,10960.734,00000000
891870,11165.840,00000000
891880,11241.908,00000000
891890,11274.109,00000000
891900,10820.584,00000000
891910,11048.722,00000000
891920,11498.301,00000000
891930,11695.657,00000000
891940,11445.040,00000000
891950,12046.064,00000000
891960,11355.644,00000000
891970,11326.398,00000000
891980,11099.768,00000000
891990,11150.941,00000000
892000,11289.769,00000000
892010,11647.687,00000000
892020,11759.479,00000000
892030,11848.108,00000000
892040,11261.144,00000000
892050,11052.834,00000000
892060,11157.960,00000000
892070,11516.126,00000000
892080,11074.415,00000000
892090,11076.926,00000000
892100,11082.432,00000000
892110,11014.917,00000000
892120,11280.310,00000000
892130,11109.189,00000000
892140,11222.852,00000000
892150,11241.892,00000000
892160,11156.369,00000000
892170,11851.772,00000000
892180,11527.735,00000000
892190,11461.703,00000000
892200,12633.796,00000000
892210,12906.867,00000000
892220,13122.797,00000000
892230,13486.986,00000000
892240,12585.120,00000000
892250,11900.210,00000000
892260,11912.774,00000000
892270,11832.819,00000000
892280,11739.869,00000000
892290,11748.502,00000000
892300,11810.930,00000000
892310,11754.204,00000000
892320,11529.009,00000000
892330,10978.859,00000000
892340,11345.236,00000000
892350,11058.495,00000000
892360,11723.676,00000000
892370,11402.089,00000000
892380,11518.869,00000000
892390,11548.258,00000000
892400,11046.256,00000000
892410,11125.335,00000000
892420,11452.792,00000000
892430,11257.672,00000000
892440,11163.253,00000000
892450,11304.966,00000000
892460,10961.148,00000000
892470,11029.855,00000000
892480,11669.092,00000000
892490,11210.361,00000000
892500,11424.366,00000000
892510,12261.831,00000000
892520,11248.527,00000000
892530,11468.590,00000000
892540,11130.458,00000000
892550,11169.152,00000000
892560,11697.423,00000000
892570,11381.860,00000000
892580,11823.010,00000000
892590,11334.909,00000000
892600,11273.186,00000000
892610,11449.266,00000000
892620,11355.389,00000000
892630,11381.092,00000000
892640,11362.006,00000000
892650,11681.464,00000000
892660,11458.605,00000000
892670,11334.837,00000000
892680,11421.469,00000000
892690,11329.269,00000000
892700,10924.548,00000000
892710,11104.001,00000000
892720,11417.215,00000000
892730,11287.123,00000000
892740,11277.198,00000000
892750,11451.574,00000000
892760,11651.265,00000000
892770,11341.724,00000000
892780,11014.112,00000000
892790,11206.885,00000000
892800,12308.935,00000000
892810,12827.167,00000000
892820,13251.294,00000000
892830,13165.932,00000000
892840,12319.521,00000000
892850,12475.276,00000000
892860,11843.559,00000000
892870,11801.160,00000000
892880,11831.032,00000000
892890,11726.184,00000000
892900,11522.172,00000000
892910,11292.302,00000000
892920,10999.021,00000000
892930,11425.849,00000000
892940,11393.548,00000000
892950,11426.780,00000000
892960,11525.222,00000000
892970,11154.604,00000000
892980,11022.755,00000000
892990,11578.973,00000000
893000,11472.465,00000000
893010,11631.297,00000000
893020,11242.026,00000000
893030,11355.101,00000000
893040,11727.609,00000000
893050,11435.790,00000000
893060,11325.076,00000000
893070,11008.335,00000000
893080,10976.003,00000000
893090,11425.283,00000000
893100,11321.532,00000000
893110,10778.411,00000000
893120,10961.581,00000000
893130,10935.495,00000000
893140,11435.578,00000000
893150,11202.534,00000000
893160,10914.201,00000000
893170,10907.263,00000000
893180,10445.227,00000000
893190,10970.928,00000000
893200,11380.347,00000000
893210,11364.148,00000000
893220,11103.597,00000000
893230,11094.285,00000000
893240,11125.979,00000000
893250,10894.061,00000000
893260,11039.709,00000000
893270,11572.385,00000000
893280,11829.085,00000000
893290,11701.620,00000000
893300,11217.167,00000000
893310,11256.831,00000000
893320,11101.325,00000000
893330,11410.291,00000000
893340,10728.637,00000000
893350,11026.103,00000000
893360,11097.377,00000000
893370,10561.022,00000000
893380,11198.567,00000000
893390,11027.263,00000000
893400,11281.146,00000000
893410,12476.771,00000000
893420,13090.855,00000000
893430,13720.351,00000000
893440,12394.895,00000000
893450,12220.015,00000000
893460,11811.079,00000000
893470,14698.199,00000000
893480,16004.499,00000000
893490,16558.471,00000000
893500,13868.857,00000000
893510,12211.453,00000000
893520,11455.923,00000000
893530,11202.684,00000000
893540,10848.724,00000000
893550,11182.052,00000000
893560,11060.611,00000000
893570,11075.200,00000000
893580,10555.444,00000000
893590,10743.751,00000000
893600,10469.933,00000000
893610,11117.879,00000000
893620,11723.594,00000000
893630,11226.819,00000000
893640,10868.027,00000000
893650,10928.355,00000000
893660,10761.054,00000000
893670,10701.615,00000000
893680,11309.723,00000000
893690,11225.373,00000000
893700,11443.688,00000000
893710,11088.563,00000000
893720,11224.833,00000000
893730,10825.920,00000000
893740,10916.699,00000000
893750,11374.845,00000000
893760,11174.797,00000000
893770,11115.754,00000000
893780,11554.354,00000000
893790,15589.473,00000000
893800,20813.682,00000000
893810,23294.262,00000000
893820,24145.578,00000000
893830,24262.373,00000000
893840,24542.922,00000000
893850,24902.969,00000000
893860,24318.994,00000000
893870,16413.980,00000000
893880,13985.387,00000000
893890,12985.142,00000000
893900,13081.465,00000000
893910,12943.520,00000000
893920,12653.446,00000000
893930,12320.056,00000000
893940,12202.391,00000000
893950,12447.530,00000000
893960,12485.198,00000000
893970,12393.089,00000000
893980,12950.903,00000000
893990,13030.225,00000000
894000,13284.152,00000000
894010,12511.892,00000000
894020,12086.300,00000000
894030,12296.602,00000000
894040,12169.479,00000000
894050,12663.821,00000000
894060,12013.868,00000000
894070,12373.916,00000000
894080,12139.631,00000000
894090,12286.983,00000000
894100,12555.854,00000000
894110,12536.409,00000000
894120,12438.854,00000000
894130,12355.394,00000000
894140,12572.483,00000000
894150,12237.699,00000000
894160,12495.889,00000000
894170,12655.557,00000000
894180,12700.042,00000000
894190,12769.034,00000000
894200,13391.163,00000000
894210,12795.776,00000000
894220,12674.993,00000000
894230,12348.838,00000000
894240,12666.382,00000000
894250,12299.617,00000000
894260,12667.795,00000000
894270,12499.617,00000000
894280,12461.433,00000000
894290,12313.662,00000000
894300,12632.036,00000000
894310,13042.922,00000000
894320,12931.944,00000000
894330,12917.096,00000000
894340,12563.519,00000000
894350,12208.290,00000000
894360,12446.526,00000000
894370,12345.323,00000000
894380,12345.771,00000000
894390,12629.361,00000000
894400,12695.825,00000000
894410,12436.505,00000000
894420,12590.651,00000000
894430,12538.255,00000000
894440,12439.406,00000000
894450,12174.063,00000000
894460,12703.078,00000000
894470,12714.309,00000000
894480,12578.356,00000000
894490,12723.047,00000000
894500,12437.297,00000000
894510,12167.143,00000000
894520,12605.000,00000000
894530,12662.178,00000000
894540,12643.073,00000000
894550,12577.539,00000000
894560,13130.899,00000000
894570,12874.506,00000000
894580,12853.273,00000000
894590,12773.121,00000000
894600,12948.193,00000000
894610,13039.257,00000000
894620,12585.935,00000000
894630,12714.205,00000000
894640,12805.154,00000000
894650,12379.487,00000000
894660,12490.262,00000000
894670,12381.313,00000000
894680,12664.722,00000000
894690,12521.440,00000000
894700,12677.634,00000000
894710,12523.886,00000000
894720,12558.512,00000000
894730,12743.023,00000000
894740,12860.514,00000000
894750,13016.333,00000000
894760,12531.115,00000000
894770,12554.854,00000000
894780,12404.906,00000000
894790,12318.104,00000000
894800,39390.301,00000000
894810,54565.863,00000000
894820,59819.289,00000000
894830,61198.418,00000000
894840,62087.637,00000000
894850,62069.633,00000000
894860,62073.914,00000000
894870,62513.789,00000000
894880,62680.582,00000000
894890,61852.395,00000000
894900,62227.160,00000000
894910,62582.430,00000000
894920,62218.023,00000000
894930,62120.547,00000000
894940,62626.129,00000000
894950,62932.203,00000000
894960,63341.922,00000000
894970,62425.352,00000000
894980,62046.523,00000000
894990,62117.703,00000000
895000,62208.977,00000000
895010,62793.488,00000000
895020,62926.371,00000000
895030,62538.191,00000000
895040,62829.727,00000000
895050,62439.266,00000000
895060,61961.688,00000000
895070,62513.328,00000000
895080,62630.766,00000000
895090,62230.676,00000000
895100,62508.082,00000000
895110,62674.164,00000000
895120,62249.645,00000000
895130,62612.805,00000000
895140,62433.109,00000000
895150,63215.301,00000000
895160,63064.113,00000000
895170,63326.969,00000000
895180,62885.113,00000000
895190,62547.484,00000000
895200,62078.500,00000000
895210,62087.992,00000000
895220,61943.223,00000000
895230,62215.227,00000000
895240,62688.293,00000000
895250,62365.578,00000000
895260,62577.375,00000000
895270,62581.465,00000000
895280,62451.711,00000000
895290,62462.613,00000000
895300,63699.465,00000000
895310,63067.461,00000000
895320,62119.531,00000000
895330,62334.750,00000000
895340,62394.578,00000000
895350,62496.746,00000000
895360,62677.121,00000000
895370,62959.902,00000000
895380,62475.434,00000000
895390,62282.594,00000000
895400,62035.367,00000000
895410,62082.363,00000000
895420,62412.129,00000000
895430,62555.434,00000000
895440,62845.566,00000000
895450,62196.207,00000000
895460,62325.391,00000000
895470,62534.086,00000000
895480,61985.684,00000000
895490,62105.535,00000000
895500,61873.043,00000000
895510,62204.430,00000000
895520,62101.473,00000000
895530,62299.414,00000000
895540,61969.852,00000000
895550,62188.133,00000000
895560,62299.230,00000000
895570,62681.246,00000000
895580,62768.918,00000000
895590,62891.039,00000000
895600,61945.008,00000000
895610,61867.035,00000000
895620,61560.164,00000000
895630,61912.883,00000000
895640,62490.797,00000000
895650,61750.574,00000000
895660,62181.070,00000000
895670,62651.152,00000000
895680,62446.727,00000000
895690,62465.184,00000000
895700,61982.855,00000000
895710,62559.797,00000000
895720,63507.230,00000000
895730,63109.703,00000000
895740,62670.574,00000000
895750,62301.910,00000000
895760,62415.957,00000000
895770,62381.691,00000000
895780,62457.953,00000000
895790,63137.184,00000000
895800,62613.750,00000000
895810,63003.793,00000000
895820,62033.754,00000000
895830,62720.035,00000000
895840,62042.832,00000000
895850,62777.398,00000000
895860,62859.797,00000000
895870,63293.457,00000000
895880,62785.441,00000000
895890,61438.426,00000000
895900,62060.848,00000000
895910,61501.145,00000000
895920,61983.852,00000000
895930,62609.453,00000000
895940,63006.871,00000000
895950,62912.141,00000000
895960,62138.809,00000000
895970,62285.570,00000000
895980,62377.898,00000000
895990,62427.293,00000000
896000,62991.891,00000000
896010,63392.234,00000000
896020,62283.895,00000000
896030,62037.766,00000000
896040,62594.879,00000000
896050,62910.086,00000000
896060,63432.453,00000000
896070,62610.152,00000000
896080,62975.492,00000000
896090,63034.789,00000000
896100,62182.359,00000000
896110,62931.020,00000000
896120,62431.766,00000000
896130,62631.840,00000000
896140,63172.457,00000000
896150,63294.973,00000000
896160,63441.813,00000000
896170,62481.660,00000000
896180,62503.035,00000000
896190,63393.883,00000000
896200,64964.227,00000000
896210,65427.477,00000000
896220,64679.680,00000000
896230,64214.070,00000000
896240,64065.465,00000000
896250,63737.598,00000000
896260,63869.008,00000000
896270,65246.473,00000000
896280,63774.656,00000000
896290,64473.129,00000000
896300,63042.535,00000000
896310,62453.840,00000000
896320,63093.820,00000000
896330,62680.070,00000000
896340,62911.645,00000000
896350,62981.906,00000000
896360,62510.309,00000000
896370,61838.965,00000000
896380,61870.191,00000000
896390,61790.324,00000000
896400,61881.227,00000000
896410,62677.555,00000000
896420,62884.453,00000000
896430,62829.152,00000000
896440,62277.301,00000000
896450,62308.914,00000000
896460,63423.836,00000000
896470,62171.766,00000000
896480,62625.887,00000000
896490,62816.719,00000000
896500,62956.129,00000000
896510,62229.676,00000000
896520,61679.781,00000000
896530,62504.566,00000000
896540,62320.500,00000000
896550,62689.176,00000000
896560,62698.074,00000000
896570,63688.527,00000000
896580,62394.965,00000000
896590,62556.242,00000000
896600,62589.789,00000000
896610,62097.906,00000000
896620,62479.980,00000000
896630,62654.246,00000000
896640,62918.293,00000000
896650,62404.859,00000000
896660,62150.582,00000000
896670,62493.469,00000000
896680,62261.484,00000000
896690,63370.836,00000000
896700,62802.469,00000000
896710,63038.906,00000000
896720,63104.047,00000000
896730,63069.984,00000000
896740,61498.559,00000000
896750,61956.328,00000000
896760,62973.723,00000000
896770,63289.449,00000000
896780,62897.227,00000000
896790,62936.496,00000000
896800,62417.246,00000000
896810,62131.023,00000000
896820,62625.754,00000000
896830,62907.531,00000000
896840,62866.344,00000000
896850,63048.859,00000000
896860,63078.797,00000000
896870,62615.039,00000000
896880,62723.594,00000000
896890,62385.375,00000000
896900,62591.555,00000000
896910,62701.703,00000000
896920,62988.406,00000000
896930,62367.730,00000000
896940,30650.420,00000000
896950,18242.055,00000000
896960,13807.089,00000000
896970,12281.285,00000000
896980,11161.826,00000000
896990,11132.953,00000000
897000,11398.441,00000000
897010,11064.981,00000000
897020,10750.849,00000000
897030,11006.368,00000000
897040,11273.176,00000000
897050,11445.450,00000000
897060,10872.990,00000000
897070,10738.975,00000000
897080,10471.023,00000000
897090,10461.702,00000000
897100,11035.318,00000000
897110,11044.197,00000000
897120,11306.685,00000000
897130,10879.593,00000000
897140,11130.226,00000000
897150,11394.469,00000000
897160,10569.013,00000000
897170,10570.730,00000000
897180,10890.027,00000000
897190,10809.572,00000000
897200,10982.439,00000000
897210,10983.527,00000000
897220,11182.574,00000000
897230,10838.246,00000000
897240,10673.034,00000000
897250,10764.157,00000000
897260,11275.688,00000000
897270,10996.975,00000000
897280,10883.127,00000000
897290,11124.944,00000000
897300,11166.339,00000000
897310,11128.110,00000000
897320,10991.450,00000000
897330,10765.933,00000000
897340,11062.151,00000000
897350,10965.925,00000000
897360,10974.048,00000000
897370,10924.766,00000000
897380,10545.296,00000000
897390,11174.489,00000000
897400,11585.144,00000000
897410,11114.842,00000000
897420,11251.503,00000000
897430,11143.424,00000000
897440,11278.164,00000000
897450,10928.115,00000000
897460,10980.859,00000000
897470,10885.247,00000000
897480,10883.750,00000000
897490,10536.389,00000000
897500,10571.546,00000000
897510,10960.605,00000000
897520,10926.574,00000000
897530,10600.381,00000000
897540,10909.135,00000000
897550,11500.474,00000000
897560,11131.737,00000000
897570,11360.967,00000000
897580,11143.004,00000000
897590,11406.181,00000000
897600,10965.123,00000000
897610,10600.048,00000000
897620,10852.546,00000000
897630,10963.245,00000000
897640,10920.677,00000000
897650,10555.138,00000000
897660,10560.774,00000000
897670,11059.079,00000000
897680,11047.635,00000000
897690,11571.213,00000000
897700,10623.622,00000000
897710,10315.888,00000000
897720,10741.524,00000000
897730,10635.056,00000000
897740,11262.184,00000000
897750,11628.087,00000000
897760,10960.051,00000000
897770,11304.211,00000000
897780,11316.371,00000000
897790,11195.952,00000000
897800,10629.628,00000000
897810,10678.837,00000000
897820,10980.212,00000000
897830,10998.595,00000000
897840,10888.665,00000000
897850,10859.935,00000000
897860,10432.210,00000000
897870,10783.797,00000000
897880,10971.046,00000000
897890,11242.666,00000000
897900,11087.625,00000000
897910,10553.122,00000000
897920,10612.090,00000000
897930,10789.401,00000000
897940,10819.902,00000000
897950,10627.344,00000000
897960,10735.867,00000000
897970,11086.603,00000000
897980,10909.338,00000000
897990,10636.046,00000000
898000,10668.302,00000000
898010,11083.444,00000000
898020,11050.635,00000000
898030,11343.880,00000000
898040,11314.976,00000000
898050,11056.877,00000000
898060,10524.374,00000000
898070,10460.535,00000000
898080,10911.692,00000000
898090,11119.129,00000000
898100,10935.440,00000000
898110,10909.597,00000000
898120,10904.829,00000000
898130,11188.395,00000000
898140,11034.807,00000000
898150,10955.784,00000000
898160,11017.033,00000000
898170,11321.409,00000000
898180,10967.620,00000000
898190,11137.626,00000000
898200,11083.836,00000000
898210,10818.157,00000000
898220,10682.321,00000000
898230,11331.392,00000000
898240,10948.438,00000000
898250,11025.506,00000000
898260,10902.459,00000000
898270,11437.847,00000000
898280,10940.327,00000000
898290,10890.682,00000000
898300,10795.377,00000000
898310,10762.241,00000000
898320,11562.956,00000000
898330,11097.201,00000000
898340,11078.330,00000000
898350,10962.610,00000000
898360,10919.379,00000000
898370,11308.221,00000000
898380,11267.293,00000000
898390,11217.323,00000000
898400,10767.910,00000000
898410,10498.540,00000000
898420,10414.798,00000000
898430,10778.243,00000000
898440,10671.954,00000000
898450,11221.188,00000000
898460,11262.435,00000000
898470,11062.876,00000000
898480,11216.170,00000000
898490,11021.494,00000000
898500,10708.201,00000000
898510,11100.953,00000000
898520,11652.976,00000000
898530,11564.313,00000000
898540,10960.822,00000000
898550,10998.923,00000000
898560,10945.743,00000000
898570,11041.729,00000000
898580,10950.555,00000000
898590,10970.169,00000000
898600,11022.772,00000000
898610,10800.656,00000000
898620,10645.635,00000000
898630,10668.971,00000000
898640,11005.147,00000000
898650,10783.847,00000000
898660,10889.390,00000000
898670,10789.909,00000000
898680,10562.785,00000000
898690,10835.058,00000000
898700,10747.551,00000000
898710,11067.891,00000000
898720,11054.921,00000000
898730,11109.096,00000000
898740,11098.719,00000000
898750,10526.017,00000000
898760,10661.202,00000000
898770,10818.554,00000000
898780,10650.985,00000000
898790,11299.489,00000000
898800,10657.092,00000000
898810,11386.883,00000000
898820,11151.910,00000000
898830,10602.270,00000000
898840,10292.990,00000000
898850,10848.042,00000000
898860,10947.476,00000000
898870,11445.090,00000000
898880,11052.150,00000000
898890,10907.985,00000000
898900,10822.632,00000000
898910,10569.807,00000000
898920,10756.787,00000000
898930,10875.054,00000000
898940,11192.074,00000000
898950,10821.757,00000000
898960,11045.998,00000000
898970,11148.177,00000000
898980,10553.536,00000000
898990,10676.855,00000000
899000,11286.319,00000000
899010,11855.104,00000000
899020,11029.986,00000000
899030,10890.690,00000000
899040,11254.290,00000000
899050,11064.008,00000000
899060,10831.970,00000000
899070,10978.883,00000000
899080,11500.990,00000000
899090,11206.918,00000000
899100,10735.067,00000000
899110,10692.935,00000000
899120,11483.628,00000000
899130,10649.823,00000000
899140,11083.432,00000000
899150,11255.024,00000000
899160,11178.423,00000000
899170,11014.007,00000000
899180,10791.088,00000000
899190,10947.186,00000000
899200,10710.396,00000000
899210,11132.891,00000000
899220,11156.290,00000000
899230,10884.521,00000000
899240,10935.522,00000000
899250,10757.772,00000000
899260,11273.622,00000000
899270,11167.566,00000000
899280,11255.546,00000000
899290,10939.004,00000000
899300,11261.863,00000000
899310,11247.238,00000000
899320,10676.519,00000000
899330,10788.496,00000000
899340,10964.120,00000000
899350,11397.630,00000000
899360,11846.450,00000000
899370,11279.865,00000000
899380,10889.841,00000000
899390,10769.472,00000000
899400,11109.284,00000000
899410,11113.098,00000000
899420,11296.073,00000000
899430,11545.739,00000000
899440,11048.095,00000000
899450,10484.950,00000000
899460,10775.703,00000000
899470,11510.595,00000000
899480,11067.662,00000000
899490,11001.526,00000000
899500,11196.692,00000000
899510,11780.713,00000000
899520,11472.596,00000000
899530,10812.363,00000000
899540,11255.269,00000000
899550,10804.083,00000000
899560,10993.349,00000000
899570,11038.648,00000000
899580,10870.953,00000000
899590,10818.598,00000000
899600,11053.887,00000000
899610,10992.775,00000000
899620,10673.692,00000000
899630,10597.369,00000000
899640,11228.749,00000000
899650,11344.275,00000000
899660,11016.087,00000000
899670,10551.606,00000000
899680,10839.977,00000000
899690,11084.600,00000000
899700,11732.188,00000000
899710,11454.318,00000000
899720,11301.170,00000000
899730,11031.240,00000000
899740,10723.501,00000000
899750,11128.038,00000000
899760,11141.733,00000000
899770,11340.220,00000000
899780,10762.964,00000000
899790,10956.616,00000000
899800,11082.057,00000000
899810,10983.673,00000000
899820,11075.982,00000000
899830,10804.152,00000000
899840,10999.474,00000000
899850,11187.750,00000000
899860,10913.908,00000000
899870,11264.588,00000000
899880,11142.507,00000000
899890,11277.297,00000000
899900,11002.963,00000000
899910,11251.976,00000000
899920,11235.576,00000000
899930,10675.664,00000000
899940,11300.558,00000000
899950,10805.926,00000000
899960,10726.503,00000000
899970,10887.937,00000000
899980,10911.551,00000000
899990,11213.177,00000000
900000,11208.638,00000000
